# Q [1/Ã…] I(Q) [a.u.] dI(Q) [a.u.]
0.00223785 173591 28108.829
0.00251642 141173 21630.067
0.00279499 128872 15388.979
0.00307356 132482 11923.763
0.00335213 169254 8715.4793
0.0036307 146794 7317.0952
0.00390927 154162.8 5764.1965
0.00418784 159936.9 4958.9508
0.00446641 170498.8 4362.1333
0.00474498 160043.9 3825.9498
0.00502355 155419.2 3291.711
0.00530212 164124.5 2979.5141
0.00558069 154702 2626.6424
0.00585926 157572.7 2478.1892
0.00613783 158728.5 2250.302
0.0064164 156028.8 1975.5711
0.00669497 154268.8 1996.4545
0.00697355 157553.55 1757.1926
0.00725212 161132.39 1742.5159
0.00753069 157633.61 1590.7147
0.00780926 157240.64 1528.9117
0.00808783 156999.73 1519.4943
0.0083664 155998.41 1416.9181
0.00864497 158554.33 1381.851
0.00892354 155558.55 1317.3165
0.00920211 155539 1265.557
0.00948068 157637.74 1296.1007
0.00975925 154357.4 1192.8997
0.0100378 156941.04 1194.3829
0.0103164 155599.68 1158.4735
0.010595 156329.05 1127.9637
0.0108735 153325.74 1117.7008
0.0111521 154454.1 1077.9929
0.0114307 154252.14 1095.7606
0.0117092 155763.8 1042.5879
0.0119878 154575.59 1023.6467
0.0122664 153109.93 1022.0931
0.012545 153548.22 982.3909
0.0128235 151189.39 988.03028
0.0131021 151627.88 966.53339
0.0133807 152969.42 945.50974
0.0136592 150425.71 940.00832
0.0139378 151552.12 912.44285
0.0142164 151965.82 920.92255
0.0144949 151963.83 904.02688
0.0147735 151479.66 892.57832
0.0150521 150296.57 878.59556
0.0153307 150749.22 863.08156
0.0156092 150392.22 861.3487
0.0158878 149808.36 852.2798
0.0161664 149532.41 829.38442
0.0164449 148902.69 837.51811
0.0167235 149405.92 809.62084
0.0170021 148683.37 810.24434
0.0172806 148876.98 805.99652
0.0175592 149454.84 802.28741
0.0178378 147911.92 787.02642
0.0181164 148444.12 775.4942
0.0183949 148436.4 772.06696
0.0186735 148250.59 763.51036
0.0189521 147372.83 773.90448
0.0192306 148020.74 786.59305
0.0195092 146653.74 784.96888
0.0197878 146982.44 779.41191
0.0200664 146362.37 781.02241
0.0203449 147166.9 781.27176
0.0206235 145796.72 777.00762
0.0209021 145401.04 772.14015
0.0211806 143845.49 767.17703
0.0214592 144622.16 774.49453
0.0217378 145761.67 766.13096
0.0220163 143656.46 763.79065
0.0222949 142042.75 757.44123
0.0225735 142699.5 756.24585
0.0228521 141916.4 753.35008
0.0231306 142500.79 745.35831
0.0234092 140023.24 745.49251
0.0236878 142265.69 753.64143
0.0239663 141141.06 738.80109
0.0242449 140712.92 739.18749
0.0245235 139498.73 730.03059
0.024802 140362 738.77885
0.0250806 139701.79 735.36883
0.0253592 138445.71 714.59505
0.0256378 138870.83 710.72446
0.0259163 137937.5 687.38236
0.0261949 138321.87 689.90491
0.0264735 137327.99 672.74385
0.026752 136799.07 654.76383
0.0270306 136421.04 658.25303
0.0273092 136248.72 652.87898
0.0275877 135676.29 641.06644
0.0278663 135609.97 639.7621
0.0281449 134345.07 628.06737
0.0284235 133641.61 630.42496
0.028702 134595.02 619.87069
0.0289806 132529.11 611.06779
0.0292592 132701.35 611.10383
0.0295377 131417.1 602.32661
0.0298163 132082.75 597.70561
0.0300949 131194.3 592.05702
0.0303735 130886.49 586.66708
0.030652 129508.16 587.79629
0.0309306 130754.46 583.30836
0.0312092 129321.35 573.88891
0.0314877 129241.52 575.63213
0.0317663 129022.67 568.80259
0.0320449 128403.43 565.02128
0.0323234 127837.46 563.31193
0.032602 126498.86 552.99556
0.0328806 126486.45 551.31136
0.0331592 126703.75 550.3239
0.0334377 126344.76 547.64988
0.0337163 125392.32 551.64931
0.0339949 124316.47 549.85021
0.0342734 124581.7 562.92701
0.034552 123113.3 555.13828
0.0348306 123045.64 550.54854
0.0351091 123496.58 555.83037
0.0353877 123867.81 558.64479
0.0356663 122213.13 560.83366
0.0359449 121188.86 548.74408
0.0362234 120797.72 547.20018
0.036502 120074.49 550.07213
0.0367806 120939.98 548.31756
0.0370591 118988.27 552.55603
0.0373377 119427.59 542.44804
0.0376163 118947.87 542.51817
0.0378949 119247.44 545.49581
0.0381734 116533.27 533.79455
0.038452 116854.16 543.0094
0.0387306 116746.76 530.92126
0.0390091 116415.7 540.51804
0.0392877 115061.67 534.88722
0.0395663 115403.67 526.70995
0.0398448 114856.81 531.58088
0.0401234 115188.54 528.84551
0.040402 114309.05 533.0608
0.0406806 113613.19 526.37489
0.0409591 113611.38 516.75684
0.0412377 110953.1 520.12284
0.0415163 111722.73 516.37252
0.0417948 111037.7 516.48141
0.0420734 111149.44 515.16956
0.042352 110550.12 514.60185
0.0426305 108808.31 520.81498
0.0429091 109682.26 516.30667
0.0431877 108539.42 521.05848
0.0434663 107256.19 516.94372
0.0437448 107380.52 528.65705
0.0440234 106158.31 526.27637
0.044302 105681.53 520.27552
0.0445805 105570.2 524.49744
0.0448591 105005.39 522.24429
0.0451377 102684.48 526.79775
0.0454163 103029.06 523.80927
0.0456948 103162.72 523.70583
0.0459734 101654.67 520.65679
0.046252 101581.5 524.06171
0.0465305 101552.88 514.71292
0.0468091 101495.54 513.99563
0.0470877 99204.43 503.34574
0.0473662 99718.65 498.55624
0.0476448 98753.16 496.60738
0.0479234 99040.29 491.25237
0.048202 97803.5 488.47963
0.0484805 97814.06 485.26447
0.0487591 97006.53 478.19377
0.0490377 97171.6 480.61161
0.0493162 95589.81 470.41756
0.0495948 95062.52 471.54935
0.0498734 94822.38 465.32094
0.0501519 94401.45 465.66735
0.0504305 93745.84 469.78643
0.0507091 92963.37 462.53938
0.0509877 92323.87 463.88779
0.0512662 91937.88 460.47549
0.0515448 91521.54 457.97141
0.0518234 91989.73 461.09978
0.0521019 90743.78 455.11233
0.0523805 91253 458.23448
0.0526591 89509.37 455.72627
0.0529376 88950.97 450.30576
0.0532162 88337.17 452.81191
0.0534948 88274.45 448.38758
0.0537734 87660.73 446.90207
0.0540519 86312.8 441.92419
0.0543305 87248.28 443.14444
0.0546091 85458.05 438.90038
0.0548876 84940.42 429.06338
0.0551662 84872.91 431.60104
0.0554448 83855.84 430.88285
0.0557234 83934.94 425.50023
0.0560019 84004.19 429.47707
0.0562805 82660.88 418.81811
0.0565591 82180.3 420.2647
0.0568376 81926.81 420.6352
0.0571162 81289.32 415.36056
0.0573948 80271.13 416.35224
0.0576733 80757.38 412.72205
0.0579519 78761.46 410.7042
0.0582305 79065.46 410.35026
0.0585091 78997.02 407.53107
0.0587876 77454.47 405.73908
0.0590662 76994.15 404.88333
0.0593448 76548.91 403.55388
0.0596233 76107.11 399.05424
0.0599019 75353.95 397.27618
0.0601805 75366.05 401.00291
0.060459 74518.1 395.54198
0.0607376 74107.67 390.22317
0.0610162 73292.9 390.75207
0.0612948 72904.22 391.42209
0.0615733 72899.02 390.07674
0.0618519 72170.56 386.51294
0.0621305 71509.94 384.21899
0.062409 71618.22 383.1221
0.0626876 70261.21 384.5326
0.0629662 69739.22 378.60583
0.0632448 69420.89 378.64843
0.0635233 69093.66 375.61684
0.0638019 68461.88 375.3699
0.0640805 67668.04 374.59146
0.064359 68012.2 370.31794
0.0646376 67811.85 372.53129
0.0649162 66389.27 369.00834
0.0651947 65354.07 366.70789
0.0654733 65085.66 364.07137
0.0657519 64305.32 360.28747
0.0660305 65107.33 364.84166
0.066309 63802.43 359.61909
0.0665876 63751.67 359.88814
0.0668662 63298.66 355.77758
0.0671447 62909.62 355.58853
0.0674233 61802.47 355.1574
0.0677019 62463.13 351.68636
0.0679804 60666.48 351.32192
0.068259 60357.69 349.5151
0.0685376 60724.3 348.16211
0.0688162 60368.01 347.24677
0.0690947 59141 341.2677
0.0693733 58735.8 344.24011
0.0696519 58846.55 342.9775
0.0699304 58189.3 340.96278
0.070209 56913.43 338.63187
0.0704876 57687.39 335.41525
0.0707662 56705.74 337.85877
0.0710447 56231.17 334.50934
0.0713233 55637.45 332.96768
0.0716019 54753.58 331.62397
0.0718804 54974.75 328.2769
0.072159 54304.51 329.54161
0.0724376 53900.25 326.43514
0.0727161 53643.83 325.30004
0.0729947 53347.08 325.16978
0.0732733 52360.44 324.45623
0.0735519 52068.81 320.66404
0.0738304 51716.61 319.70728
0.074109 51337.64 317.87792
0.0743876 50729.85 316.36192
0.0746661 50237.55 314.75302
0.0749447 49738.13 311.78665
0.0752233 49062.16 311.82522
0.0755018 49740.33 312.28219
0.0757804 48695.16 310.98624
0.076059 48391.35 309.74187
0.0763376 47873.81 307.89781
0.0766161 47488.06 305.39272
0.0768947 47231.01 305.39469
0.0771733 46225.82 301.8326
0.0774518 46483.77 300.93105
0.0777304 46016.82 299.11729
0.078009 45664.73 307.67075
0.0782875 45084.01 305.90855
0.0785661 44531.46 307.11385
0.0788447 44221.46 308.76891
0.0791233 43590.44 309.20791
0.0794018 43300.56 313.92222
0.0796804 42882.94 308.66723
0.079959 42414.88 310.13183
0.0802375 41870.97 309.00633
0.0805161 41357.61 310.50602
0.0807947 41267.3 312.59153
0.0810733 41010.87 308.40152
0.0813518 41120.78 312.71536
0.0816304 40254.29 311.20164
0.081909 39739.38 310.50399
0.0821875 39826.51 310.6347
0.0824661 39724.27 311.16423
0.0827447 38876.58 309.86368
0.0830232 38146.31 308.47931
0.0833018 37923.79 305.7216
0.0835804 38013.54 309.29131
0.083859 37692.6 309.40189
0.0841375 37588.77 309.55998
0.0844161 36133.91 304.16737
0.0846947 36878 300.92723
0.0849732 36006.3 296.67368
0.0852518 35422.18 292.71021
0.0855304 35399.71 290.8188
0.0858089 35173.24 286.2319
0.0860875 35035.66 285.3668
0.0863661 34958.11 284.14963
0.0866447 34547.36 281.4264
0.0869232 34025.65 279.74847
0.0872018 33360.08 276.79927
0.0874804 32779.43 276.09117
0.0877589 33149.63 273.35411
0.0880375 32543.1 271.28665
0.0883161 31803.48 269.04599
0.0885947 31924.63 269.56346
0.0888732 31345.24 267.30022
0.0891518 31514.6 265.25029
0.0894304 30917.39 264.14759
0.0897089 30556.37 261.72658
0.0899875 30281.96 260.41033
0.0902661 30310.01 258.8112
0.0905446 29946.64 257.74231
0.0908232 29642.61 257.04121
0.0911018 29446.77 254.90371
0.0913804 29106.79 253.23926
0.0916589 28622.73 250.78096
0.0919375 27992.73 255.00525
0.0922161 28027.29 259.31134
0.0924946 27872.62 258.04689
0.0927732 27356.63 259.89884
0.0930518 27199.01 259.56079
0.0933303 26972.05 260.61036
0.0936089 26123.24 260.37385
0.0938875 26198.89 259.91893
0.0941661 26331.83 261.5727
0.0944446 25621.89 259.23627
0.0947232 25126.27 256.56903
0.0950018 25452.12 259.17936
0.0952803 25478.11 259.60906
0.0955589 25264.63 260.96289
0.0958375 24173.86 254.41688
0.0961161 24205.58 251.11364
0.0963946 24102.7 247.9174
0.0966732 23735.19 244.25287
0.0969518 23441.25 244.42517
0.0972303 23764.57 242.51324
0.0975089 22954.19 239.56141
0.0977875 22774.66 239.14129
0.098066 22580.03 237.7402
0.0983446 22053.55 237.19322
0.0986232 21664.83 234.15657
0.0989018 21917.6 236.43839
0.0991803 21605.21 234.18217
0.0994589 21124.12 230.72672
0.0997375 21308.43 231.16404
0.100016 20984.39 228.08255
0.100295 20603.39 226.45876
0.100573 20534.49 225.56229
0.100852 20260.82 224.90347
0.10113 20241.98 223.64924
0.101409 20218.02 222.15767
0.101687 19743.96 221.41373
0.101966 19355.82 220.0819
0.102245 18967.67 218.66467
0.102523 19436.91 219.23232
0.102802 19096.34 218.19521
0.10308 18176.54 215.99066
0.103359 17907.12 215.60675
0.103637 18242.04 215.53485
0.103916 18589.87 215.0168
0.104195 17695.42 213.27148
0.104473 17502.3 211.21311
0.104752 17442.66 211.29802
0.10503 17309.41 211.85564
0.105309 17135.06 209.53006
0.105587 16711.15 210.26122
0.105866 17009.12 207.67305
0.106145 16623.91 208.15524
0.106423 15894.49 205.69793
0.106702 16459.99 205.52559
0.10698 15756.26 207.15696
0.107259 15973.41 203.52848
0.107537 15574.71 205.36608
0.107816 15401.72 202.53866
0.108095 15230.13 202.57209
0.108373 15016.09 201.28465
0.108652 15097.68 201.03913
0.10893 14941.41 201.81952
0.109209 14801.23 199.68872
0.109487 14195.63 196.74822
0.109766 14198.72 198.82496
0.110045 14405.26 198.08856
0.110323 13900.34 196.45579
0.110602 13815.65 195.14074
0.11088 13438.42 194.9096
0.111159 13301.01 195.20871
0.111437 12814.96 192.0109
0.111716 13297.2 193.46867
0.111995 12774.33 191.88576
0.112273 13026.42 192.76942
0.112552 12558.33 191.96206
0.11283 12519.16 190.41386
0.113109 12394.56 190.30219
0.113387 11963.71 188.42447
0.113666 12328.88 189.30642
0.113945 12177.61 188.35895
0.114223 12027.41 187.52082
0.114502 11647.59 186.60786
0.11478 11341.8 186.60536
0.115059 11195.7 185.43982
0.115337 11176.64 185.3492
0.115616 11125.45 184.22563
0.115895 11076.49 184.35029
0.116173 11077.45 184.25758
0.116452 10597.74 182.14095
0.11673 10795.56 182.70963
0.117009 10516.58 182.24761
0.117287 9896.88 179.83273
0.117566 10322.74 180.9
0.117845 10104.17 180.59305
0.118123 10117.92 179.96033
0.118402 10274.15 179.64254
0.11868 9801.16 177.94926
0.118959 9594.28 178.04796
0.119237 9533.98 177.97472
0.119516 9544.37 176.37302
0.119795 9370.94 175.66997
0.120073 9210.86 174.40827
0.120352 9357.82 175.98087
0.12063 8771.37 173.48059
0.120909 8627.9 173.60603
0.121187 8755.61 172.75852
0.121466 8550.53 171.67897
0.121745 8626.67 172.64918
0.122023 8272.63 170.84549
0.122302 8247.01 170.17152
0.12258 8400.83 169.90072
0.122859 8009.01 169.22495
0.123137 8015.83 169.28951
0.123416 7967.76 166.7995
0.123695 7597.49 166.11809
0.123973 7628.61 166.65947
0.124252 7570.03 164.9292
0.12453 7365.58 166.2951
0.124809 7207.27 164.01207
0.125087 7545.27 166.02755
0.125366 7534.58 164.85334
0.125645 6920.06 162.74662
0.125923 7240 163.96721
0.126202 6876.96 163.21272
0.12648 7006.35 164.59902
0.126759 6896.98 163.78149
0.127037 6780.31 162.43933
0.127316 6605.1 162.01397
0.127594 6701.39 162.38207
0.127873 6453.8 161.14053
0.128152 6822.35 162.46804
0.12843 6436.38 161.34404
0.128709 6359.94 161.10394
0.128987 6443.19 159.99166
0.129266 5562.09 158.37619
0.129544 6061.31 159.60946
0.129823 5888.54 159.45681
0.130102 5601.01 158.1712
0.13038 5959.04 157.74967
0.130659 5500.69 156.87723
0.130937 5617.92 156.82988
0.131216 5608.58 157.32212
0.131494 5682.96 157.54184
0.131773 5520 156.70291
0.132052 5550.48 154.83889
0.13233 5258.5 156.48435
0.132609 5279.17 155.15814
0.132887 5258.65 154.94043
0.133166 5212.85 154.45868
0.133444 5162.72 153.74281
0.133723 5196.18 154.54527
0.134002 5076.99 153.00179
0.13428 4795.05 153.62461
0.134559 4806.34 152.74908
0.134837 4965.52 153.01598
0.135116 4732.5 152.43415
0.135394 4688.71 151.38655
0.135673 4700.32 150.96945
0.135952 4516.5 151.97054
0.13623 4772.58 149.91351
0.136509 4361.65 150.82435
0.136787 4436.38 150.42122
0.137066 4160.67 151.3822
0.137344 4028.45 153.58182
0.137623 4205.32 152.99179
0.137902 4247.41 156.12652
0.13818 4358.71 156.71922
0.138459 3747.44 154.97303
0.138737 4169.73 156.83049
0.139016 3776.03 155.74634
0.139294 3992.59 158.73216
0.139573 3799.92 157.91591
0.139852 3790.91 157.30245
0.14013 3795.8 159.33202
0.140409 3802.43 158.27101
0.140687 3667.89 159.41486
0.140966 3976.29 159.48539
0.141244 3405.52 158.93045
0.141523 3668.17 160.83249
0.141802 3650.53 159.52595
0.14208 3541.35 159.14459
0.142359 3557.42 159.47195
0.142637 3447.28 160.99817
0.142916 3350.52 160.64304
0.143194 3203.86 159.51071
0.143473 3170 159.84191
0.143752 3328.44 156.95004
0.14403 3200.02 156.40805
0.144309 3215.99 153.0198
0.144587 3174.56 152.51143
0.144866 3188.95 152.13951
0.145144 3121.31 150.96219
0.145423 3094.64 151.13993
0.145702 3090.21 149.22361
0.14598 2856.77 149.70291
0.146259 2981.91 148.98698
0.146537 2562.48 147.96167
0.146816 2947.73 148.25381
0.147094 3004.77 147.15285
0.147373 2841.69 146.71313
0.147652 2914.76 147.45334
0.14793 2726.45 145.62628
0.148209 2612.1 145.72758
0.148487 2712.58 145.69831
0.148766 2861.35 146.24546
0.149044 2658.76 144.51591
0.149323 2740.19 144.73746
0.149602 2447.91 144.13687
0.14988 2393.32 143.85852
0.150159 2708.78 143.03769
0.150437 2395.05 142.87382
0.150716 2402.32 143.46243
0.150994 2435.09 142.86447
0.151273 2444.81 143.6873
0.151552 2435.06 142.79465
0.15183 2500.03 142.08478
0.152109 2427.05 142.56557
0.152387 2413.35 140.85716
0.152666 2380.26 141.79637
0.152944 2440.12 141.45326
0.153223 2518.26 140.95806
0.153502 2426.78 141.02275
0.15378 2628.14 140.64911
0.154059 2204.81 140.44706
0.154337 2142.59 139.38789
0.154616 2115.17 138.93827
0.154894 2185.85 139.78128
0.155173 2225.44 138.75968
0.155452 2260.2 139.51879
0.15573 1899.29 138.56692
0.156009 2169.53 138.49693
0.156287 2197.21 138.13251
0.156566 1976.84 136.4709
0.156844 2118.11 137.75881
0.157123 2198.69 138.2271
0.157402 2133.26 137.3537
0.15768 1940.41 136.97115
0.157959 2119.08 136.97298
0.158237 1841.91 136.30159
0.158516 2195.39 137.70142
0.158794 2016.76 136.0915
0.159073 1917.92 136.02668
0.159352 2106.36 136.63307
0.15963 1984.92 135.39825
0.159909 1700.09 135.20788
0.160187 1529.92 133.84679
0.160466 2038.26 135.90739
0.160744 2146.01 135.83645
0.161023 1750.64 134.40217
0.161302 1589.06 133.93965
0.16158 1819.22 134.42951
0.161859 1700.43 133.7579
0.162137 1694.18 134.16678
0.162416 1856.17 133.28222
0.162694 1717.96 133.77433
0.162973 1849.08 134.54586
0.163252 1581.27 132.8029
0.16353 1622.07 133.28467
0.163809 1548.76 132.22303
0.164087 1849.12 134.0489
0.164366 1862.51 133.02103
0.164644 1660.01 132.03829
0.164923 1619.65 132.27957
0.165201 1593.52 131.38045
0.16548 1830.78 131.91005
0.165759 1616.93 131.84164
0.166037 1668.88 131.02336
0.166316 1737.8 131.04126
0.166594 1679.79 130.86654
0.166873 1462.82 130.93864
0.167151 1534.95 130.19964
0.16743 1684.4 129.96595
0.167709 1347 129.72021
0.167987 1588.25 130.07838
0.168266 1633.1 130.21849
0.168544 1475.41 129.99986
0.168823 1360.71 129.88943
0.169101 1620.03 129.66838
0.16938 1536.5 128.69566
0.169659 1733.01 129.59724
0.169937 1344.42 129.03759
0.170216 1401.36 128.8083
0.170494 1439.16 129.0998
0.170773 1441.93 128.56451
0.171051 1466.75 128.81496
0.17133 1380.48 128.67838
0.171609 1436.81 128.88559
0.171887 1420.41 129.06193
0.172166 1458.13 129.55147
0.172444 1369.16 128.37954
0.172723 1407.87 129.09188
0.173001 1626.23 128.40829
0.17328 1669.19 128.91325
0.173559 1398.29 128.76356
0.173837 1347.35 127.42456
0.174116 1450.31 127.25235
0.174394 1394.54 127.78242
0.174673 1491.54 128.11655
0.174951 1579.49 127.80901
0.17523 1481.35 128.06786
0.175509 1115.18 126.86729
0.175787 1371.95 127.09268
0.176066 1243.44 127.07667
0.176344 1344.19 127.29768
0.176623 1238.85 126.57842
0.176901 1281.13 126.59974
0.17718 1470.53 126.63652
0.177459 1671.13 127.79818
0.177737 1480.7 127.23204
0.178016 1339.94 126.26311
0.178294 1527.99 126.65365
0.178573 1246.03 125.49277
0.178851 1284.86 126.24675
0.17913 1467.58 125.80138
0.179409 1533.65 126.42406
0.179687 1495.66 126.61031
0.179966 1239.27 125.97463
0.180244 1432.72 125.93562
0.180523 1457.64 125.72311
0.180801 1114.53 125.11859
0.18108 1286.34 125.71724
0.181359 1342.5 125.92934
0.181637 1340.5 125.06559
0.181916 1506.54 125.33201
0.182194 1313.87 125.90728
0.182473 1251.37 126.26084
0.182751 1428.12 125.89662
0.18303 1276.66 126.27248
0.183309 1325.85 126.33519
0.183587 1369.24 126.33455
0.183866 1075.55 125.76821
0.184144 1291 125.69497
0.184423 1243.29 126.40132
0.184701 1670.89 126.98558
0.18498 1303.31 126.41603
0.185259 1444.87 126.66721
0.185537 1183.44 125.81404
0.185816 1329.14 126.29509
0.186094 1247.11 126.24769
0.186373 1397.25 126.26224
0.186651 1413.77 125.2604
0.18693 1231.4 125.26209
0.187209 1369.81 125.02215
0.187487 1346.85 125.30271
0.187766 1293.85 125.20909
0.188044 1112.08 125.13155
0.188323 1321.86 125.45483
0.188601 1316.71 124.04988
0.18888 1296.77 124.5804
0.189159 1288.54 123.99844
0.189437 1259.44 124.1975
0.189716 1419.8 124.87425
0.189994 1187.09 123.09045
0.190273 1136.34 123.46533
0.190551 1130.18 123.63081
0.19083 1333.16 123.54133
0.191109 1451.85 124.20834
0.191387 1203.71 122.84492
0.191666 1432.26 123.75042
0.191944 1472.41 123.31572
0.192223 1365.51 122.94578
0.192501 1250.34 123.54859
0.19278 1378.62 122.89034
0.193059 1547.18 123.29609
0.193337 1574.84 122.60684
0.193616 1110.68 122.58532
0.193894 1319.79 122.61029
0.194173 1479.9 121.67826
0.194451 1199.48 122.38612
0.19473 1162.38 122.15065
0.195009 1278.97 121.08075
0.195287 1243.63 122.24099
0.195566 1400.99 120.96398
0.195844 1318.45 122.35838
0.196123 1172.7 123.05006
0.196401 1335.38 124.0511
0.19668 1391.77 126.1055
0.196959 1544.95 125.63942
0.197237 1472.95 127.03604
0.197516 1567.9 126.85752
0.197794 1098.65 126.42395
0.198073 1427.42 127.60244
0.198351 1013.4 126.91323
0.19863 1222.55 128.80221
0.198909 1079.25 127.29853
0.199187 1247.68 128.00923
0.199466 1385.25 129.39006
0.199744 1184.99 128.69233
0.200023 1334.7 129.53411
0.200301 1197.84 129.74512
0.20058 1329.03 130.39578
0.200858 1361.78 130.94709
0.201137 1324.2 130.67353
0.201416 1233.59 130.90299
0.201694 1249.32 131.01478
0.201973 1518.88 131.45978
0.202251 1325.77 131.63093
0.20253 1307.1 132.79321
0.202808 1340.1 130.56998
0.203087 1311.71 128.7396
0.203366 1364.95 128.36771
0.203644 1349.37 127.8991
0.203923 1407.1 127.04794
0.204201 1338.8 126.16133
0.20448 1409.48 126.71782
0.204758 1432.96 125.65054
0.205037 1399.22 125.59812
0.205316 1340.1 126.09381
0.205594 1291.28 124.60187
0.205873 1282.72 124.56655
0.206151 1396.89 123.75006
0.20643 1415.32 124.41515
0.206708 1335.25 123.77021
0.206987 1314.8 123.96715
0.207266 1349.21 124.56032
0.207544 1377.25 123.4767
0.207823 1213.71 124.59349
0.208101 1460.6 123.27721
0.20838 1240.05 122.80413
0.208658 1273.83 123.76917
0.208937 1148.74 122.69275
0.209216 1088.99 123.71391
0.209494 1418.68 122.83562
0.209773 1369.17 122.43058
0.210051 1587.04 123.53562
0.21033 1234.55 121.62806
0.210608 1124.79 122.66057
0.210887 1311.99 121.72733
0.211166 1180.75 122.00635
0.211444 1407.78 122.3918
0.211723 1289.52 121.76678
0.212001 1263.48 122.0049
0.21228 1266.83 121.11557
0.212558 1415.18 121.74552
0.212837 1339.9 121.45779
0.213116 1317.33 121.13701
0.213394 1127.05 120.77427
0.213673 1389.81 120.96294
0.213951 1188.26 120.79687
0.21423 1167.99 120.693
0.214508 1289.65 120.13024
0.214787 1099.71 119.90172
0.215066 1307 120.42319
0.215344 1329.54 120.2465
0.215623 1507.68 120.53614
0.215901 1414.57 120.57201
0.21618 1344.87 120.10775
0.216458 1157.2 119.87521
0.216737 1239.37 119.99215
0.217016 1262.65 118.80766
0.217294 1442 120.02718
0.217573 1204.87 119.09258
0.217851 1171.3 118.80897
0.21813 1407.48 118.77745
0.218408 1067.09 118.95829
0.218687 1246.13 118.51544
0.218966 1184.15 118.55865
0.219244 1136.74 118.8183
0.219523 1414.88 118.41792
0.219801 1212.23 118.27787
0.22008 1409.18 118.4237
0.220358 1211.65 118.21422
0.220637 1321.13 118.49816
0.220916 1065.95 117.49091
0.221194 1244.58 117.96991
0.221473 1224.35 117.28974
0.221751 1319.51 117.56335
0.22203 1169.11 118.22201
0.222308 1105.48 117.56075
0.222587 1205.06 117.5613
0.222866 1434.58 117.88029
0.223144 1194 116.95551
0.223423 1221.89 118.367
0.223701 1403.96 117.74326
0.22398 1091.19 117.13331
0.224258 1258.8 117.50267
0.224537 1346.27 117.24474
0.224816 1105.75 116.82233
0.225094 1133.04 117.08394
0.225373 1352.56 117.94131
0.225651 921.9 116.78319
0.22593 1242.45 116.75518
0.226208 1202.29 116.90459
0.226487 1115.76 116.58971
0.226766 1368.08 116.71656
0.227044 1212.26 116.17791
0.227323 1165.23 116.3821
0.227601 1168.74 116.00704
0.22788 1249.75 116.32422
0.228158 1200.39 115.39121
0.228437 1097.29 115.91505
0.228716 1222.33 115.62812
0.228994 1136.04 115.33016
0.229273 1317.03 115.71503
0.229551 1379.5 115.26843
0.22983 1332.49 115.38196
0.230108 1174.9 115.15547
0.230387 1376.41 115.34935
0.230666 1188.39 115.75008
0.230944 1309.18 114.90938
0.231223 1198.92 115.57769
0.231501 941.74 115.59522
0.23178 981.15 115.79751
0.232058 1222.35 116.39516
0.232337 963.91 115.62861
0.232616 1253.11 116.21144
0.232894 1067.08 115.8336
0.233173 1174.24 116.37347
0.233451 1230.93 116.84009
0.23373 1044.74 116.43154
0.234008 1088.02 116.89535
0.234287 1232.02 117.04125
0.234566 977.69 116.41669
0.234844 963.77 116.75921
0.235123 1247.06 116.23071
0.235401 971.24 116.98191
0.23568 1069.14 116.51129
0.235958 1068.22 116.2048
0.236237 1158.61 116.60017
0.236515 1400.77 116.16617
0.236794 1089.9 116.21888
0.237073 1203.7 115.79413
0.237351 1325.07 116.05956
0.23763 981.27 115.56454
0.237908 1110.91 115.30726
0.238187 1004.56 115.17518
0.238465 1130.99 115.15649
0.238744 1268.44 115.36924
0.239023 1058.07 115.08262
0.239301 1059.76 114.66404
0.23958 1157.92 114.97322
0.239858 1045.12 114.36736
0.240137 1164.46 114.63395
0.240415 1169.27 114.0349
0.240694 1128.25 113.76776
0.240973 1050.75 114.38845
0.241251 1080.76 114.04532
0.24153 1122.45 113.88098
0.241808 1205.49 113.39243
0.242087 1105.21 113.91216
0.242365 1025.74 113.56521
0.242644 1234.44 113.12051
0.242923 1138.96 113.07576
0.243201 955.92 113.1644
0.24348 1135.59 112.90992
0.243758 1140.39 112.50001
0.244037 1164.53 112.31727
0.244315 1136.69 112.40461
0.244594 1005.17 111.87619
0.244873 1146.92 112.65959
0.245151 1085.41 111.81095
0.24543 922.01 111.84209
0.245708 994.59 111.81891
0.245987 1010.29 111.24437
0.246265 1022.2 111.47108
0.246544 907.41 110.94998
0.246823 1086.22 112.15269
0.247101 852.94 110.86877
0.24738 949.52 111.40994
0.247658 888.78 111.06734
0.247937 1137.88 111.57007
0.248215 1184.02 112.68327
0.248494 1013.15 111.0504
0.248773 1020.17 110.92332
0.249051 1023.13 110.93911
0.24933 1320.07 111.89121
0.249608 1023.88 111.31232
0.249887 1143.67 111.20497
0.250165 880.3 111.02198
0.250444 859.51 111.07303
0.250723 875.06 110.39113
0.251001 880.43 110.69047
0.25128 752.84 110.30259
0.251558 1010.4 111.16188
0.251837 994.01 110.3315
0.252115 1011.06 110.64946
0.252394 847.95 110.67391
0.252673 973.42 110.48517
0.252951 972.2 110.41655
0.25323 944.53 110.45314
0.253508 1144.1 110.25551
0.253787 909.25 110.18878
0.254065 904.81 109.83302
0.254344 974.07 109.6725
0.254623 1159.23 110.01124
0.254901 683.17 110.03072
0.25518 806.06 111.05902
0.255458 1014.62 111.91168
0.255737 1071.11 113.19056
0.256015 1122.97 114.89785
0.256294 922.81 114.28619
0.256573 879.24 114.37603
0.256851 813.17 114.70918
0.25713 911.42 115.75813
0.257408 587.15 115.59251
0.257687 1085.58 116.90563
0.257965 911.39 116.41069
0.258244 928.04 116.80756
0.258523 906.77 116.98772
0.258801 679.59 117.10364
0.25908 612.36 117.4938
0.259358 1082.03 117.4627
0.259637 982.72 119.04777
0.259915 1012.45 118.36237
0.260194 796.92 118.4805
0.260473 1092.37 118.44638
0.260751 936.54 119.19354
0.26103 743.35 119.14744
0.261308 1096.35 119.95834
0.261587 672.91 119.14072
0.261865 772.23 117.77878
0.262144 1054.3 117.15427
0.262423 907.95 116.29984
0.262701 690.04 115.07374
0.26298 984.4 115.45328
0.263258 845.91 114.60192
0.263537 909.89 113.89882
0.263815 682.18 113.87882
0.264094 873.59 113.2536
0.264373 823.22 114.38166
0.264651 605.59 112.67637
0.26493 726.33 112.50294
0.265208 825.08 113.72883
0.265487 735.87 112.3244
0.265765 833.65 113.81739
0.266044 743.13 112.10038
0.266323 762.72 112.64449
0.266601 828.23 112.42805
0.26688 762.46 111.39728
0.267158 814.53 112.60943
0.267437 992.53 111.26873
0.267715 752.98 111.43081
0.267994 781.33 111.72337
0.268273 938.03 110.65653
0.268551 875.75 111.32917
0.26883 799.99 110.13312
0.269108 795.53 110.48018
0.269387 613.84 109.83595
0.269665 772.47 109.45131
0.269944 727.51 109.71534
0.270223 815.84 109.55252
0.270501 776.05 109.17478
0.27078 753.64 109.61872
0.271058 701.24 109.27966
0.271337 996.51 109.2164
0.271615 911.3 108.95874
0.271894 795.94 108.80743
0.272172 903.88 109.41785
0.272451 804.04 108.81532
0.27273 573.31 108.75622
0.273008 996.53 109.16015
0.273287 605.73 108.54607
0.273565 709.05 108.48427
0.273844 689.3 108.83195
0.274122 742 108.66719
0.274401 792.78 108.5351
0.27468 901.7 108.59259
0.274958 830.86 108.64765
0.275237 966.32 108.22858
0.275515 580.5 108.39987
0.275794 615.88 108.29133
0.276072 623.29 107.83267
0.276351 812.68 108.56279
0.27663 769.25 107.51273
0.276908 925.23 107.83813
0.277187 672.62 107.85883
0.277465 602.09 107.76485
0.277744 707.15 108.22878
0.278022 742.38 107.51527
0.278301 690.2 107.68151
0.27858 655.69 107.85232
0.278858 693.09 107.53568
0.279137 818.78 107.8114
0.279415 711.38 107.19096
0.279694 642.93 107.14312
0.279972 713.98 107.75497
0.280251 704.55 106.74038
0.28053 583.25 107.14054
0.280808 877.47 107.32405
0.281087 839.35 106.88612
0.281365 514.8 107.29627
0.281644 590.93 107.12371
0.281922 896.61 107.1275
0.282201 808.62 106.76064
0.28248 689.78 106.73896
0.282758 551.86 106.14152
0.283037 610.39 106.24637
0.283315 561.39 107.01082
0.283594 551.95 105.94701
0.283872 839.67 106.35657
0.284151 784.12 107.06307
0.28443 470.71 105.89817
0.284708 456.19 106.13595
0.284987 513.95 105.8028
0.285265 698.42 106.56956
0.285544 725.82 105.80998
0.285822 691.84 106.24202
0.286101 604.58 106.0817
0.28638 574.23 105.87649
0.286658 782.04 105.86591
0.286937 473.34 105.97909
0.287215 740.48 105.87
0.287494 693.46 105.56
0.287772 727.05 105.87542
0.288051 726.91 105.81397
0.28833 610.48 105.2935
0.288608 661.78 105.65899
0.288887 830.78 105.70579
0.289165 655.42 105.98914
0.289444 624.9 105.1281
0.289722 754.83 105.24556
0.290001 561.99 104.92641
0.29028 525.75 104.80526
0.290558 518.02 105.09977
0.290837 593.78 104.42867
0.291115 655.87 104.82867
0.291394 519.73 105.06511
0.291672 558.31 104.44682
0.291951 635.65 104.89445
0.29223 482.4 104.3642
0.292508 676.6 104.54536
0.292787 727.58 104.59449
0.293065 674.74 104.49551
0.293344 527.79 104.71995
0.293622 711.09 104.12209
0.293901 766.07 105.02047
0.29418 478.82 104.29636
0.294458 538.8 103.93328
0.294737 678.69 104.39651
0.295015 541.39 103.99077
0.295294 433.28 103.87211
0.295572 691.33 104.01604
0.295851 462.59 103.65578
0.29613 601.29 104.28195
0.296408 709.37 104.06431
0.296687 661.81 104.2647
0.296965 655.34 103.58983
0.297244 444.58 103.07539
0.297522 631.51 104.27447
0.297801 666.74 103.39217
0.29808 434.74 103.62625
0.298358 406.52 103.19319
0.298637 615.3 103.9091
0.298915 557.72 103.15999
0.299194 480.71 102.54836
0.299472 486.03 103.62507
0.299751 570.98 103.84528
0.30003 582.27 103.54768
0.300308 510.67 103.34663
0.300587 293.15 103.00019
0.300865 586.22 103.25941
0.301144 703.46 103.54553
0.301422 646.67 103.14308
0.301701 616.08 103.26526
0.30198 278.81 103.0116
0.302258 513.18 102.52358
0.302537 605.33 102.97261
0.302815 480.51 101.89753
0.303094 449.51 102.25112
0.303372 662.07 102.90251
0.303651 568.69 101.92507
0.30393 565.58 102.5159
0.304208 486.71 102.01775
0.304487 536.7 101.84406
0.304765 610.72 102.49445
0.305044 343.02 101.72251
0.305322 591.64 102.20176
0.305601 506.94 102.0934
0.30588 432.17 101.13685
0.306158 636.87 102.04352
0.306437 567.74 101.71096
0.306715 442.55 102.36411
0.306994 666.23 101.69675
0.307272 444.67 101.93249
0.307551 518.18 101.77474
0.30783 550.05 101.56017
0.308108 624.74 102.59159
0.308387 559.63 102.18684
0.308665 423.52 102.01147
0.308944 600.07 102.00226
0.309222 401.11 101.62817
0.309501 392.76 101.36017
0.309779 517.83 101.88605
0.310058 624.15 102.00302
0.310337 345.72 101.41473
0.310615 583.92 101.57079
0.310894 723.92 102.26309
0.311172 380.98 101.44141
0.311451 562.74 102.21725
0.311729 532.6 101.03168
0.312008 535.42 101.25547
0.312287 510.24 101.73949
0.312565 429.07 101.17082
0.312844 458.72 100.92702
0.313122 380.78 101.11363
0.313401 314.5 101.01007
0.313679 763.79 100.94778
0.313958 448.25 101.06152
0.314237 581.02 102.01537
0.314515 335.63 103.08432
0.314794 661.67 103.68542
0.315072 610.58 104.58579
0.315351 506.22 104.78865
0.315629 443.41 105.27124
0.315908 498.76 105.92992
0.316187 439.93 106.52451
0.316465 499.02 106.14804
0.316744 458.5 106.88044
0.317022 577.64 107.07467
0.317301 543.52 106.74672
0.317579 590.23 107.22859
0.317858 415.42 107.29466
0.318137 493.12 108.81643
0.318415 353.97 107.74815
0.318694 553.16 108.76017
0.318972 659.25 108.63384
0.319251 355.41 108.77497
0.319529 414.88 109.72782
0.319808 600.11 109.09339
0.320087 479.51 110.3375
0.320365 528.33 109.72831
0.320644 549.88 110.23428
0.320922 407.92 109.34187
0.321201 586.2 107.64841
0.321479 333.04 107.21131
0.321758 536.47 106.88323
0.322037 499.05 106.10334
0.322315 467.04 106.40976
0.322594 418.73 105.43534
0.322872 626.92 105.94624
0.323151 295.25 104.99534
0.323429 626.32 104.68325
0.323708 451.23 105.17052
0.323987 592.05 105.22175
0.324265 444.12 104.42633
0.324544 424.89 105.28088
0.324822 423.14 103.81791
0.325101 460.65 104.04966
0.325379 367.4 103.62793
0.325658 383.53 103.96688
0.325937 415.96 104.35053
0.326215 257.09 103.06739
0.326494 521.47 103.47964
0.326772 539.17 103.53249
0.327051 471.39 103.20158
0.327329 445.18 103.15278
0.327608 533.9 102.68641
0.327887 340.93 103.09182
0.328165 454.98 102.03723
0.328444 618.77 102.52492
0.328722 481.24 102.53836
0.329001 535.55 101.93637
0.329279 337.64 102.25194
0.329558 555.01 102.84243
0.329837 440.98 101.61044
0.330115 532.85 102.05484
0.330394 400.86 101.74706
0.330672 385.12 101.87541
0.330951 387.62 101.86504
0.331229 610.81 101.67137
0.331508 325.14 101.9271
0.331787 364.36 101.30917
0.332065 547.13 101.64175
0.332344 456.97 101.37886
0.332622 536.75 101.05788
0.332901 616.66 101.79961
0.333179 212.81 100.27286
0.333458 529.82 101.29329
0.333737 330.91 100.67018
0.334015 495.05 101.25654
0.334294 329.64 101.71631
0.334572 386.77 100.98598
0.334851 490.18 100.77649
0.335129 437.77 101.50365
0.335408 494.69 100.53259
0.335687 382.21 101.20278
0.335965 525.12 101.08686
0.336244 362.74 100.86973
0.336522 539.59 101.14781
0.336801 636.82 100.4391
0.337079 584.66 101.12327
0.337358 596.6 100.75221
0.337637 486.11 100.9658
0.337915 537.85 101.11632
0.338194 515.57 100.03066
0.338472 512.17 100.60613
0.338751 489.41 100.35501
0.339029 609.77 100.66189
0.339308 628.55 100.53082
0.339587 517.53 99.549592
0.339865 495.65 100.54983
0.340144 575.75 100.04092
0.340422 464.73 100.01108
0.340701 394.26 100.33891
0.340979 390.82 100.0687
0.341258 444.64 99.951775
0.341537 606.97 99.787943
0.341815 409.44 99.647194
0.342094 410.35 99.783054
0.342372 375.94 99.417734
0.342651 494.12 99.713688
0.342929 612.01 99.390915
0.343208 448.34 99.288739
0.343487 475.19 99.451893
0.343765 521.11 99.371879
0.344044 405.42 98.722978
0.344322 438.35 99.10605
0.344601 555.89 98.867029
0.344879 407.47 98.912585
0.345158 496.28 98.474636
0.345436 478.93 98.608791
0.345715 477.45 99.283065
0.345994 479.08 98.064867
0.346272 565.38 98.584434
0.346551 281.45 98.327437
0.346829 583.31 98.465596
0.347108 397.13 98.828385
0.347386 605.04 98.632377
0.347665 573.62 98.520945
0.347944 391.81 98.287244
0.348222 361.25 98.24807
0.348501 536.99 98.717524
0.348779 521.76 98.110265
0.349058 472.99 98.341364
0.349336 390.34 98.749979
0.349615 341.07 97.717911
0.349894 610.75 98.974873
0.350172 435.67 98.407918
0.350451 435.62 98.785417
0.350729 525.52 98.144342
0.351008 492.68 98.092289
0.351286 368.94 98.106735
0.351565 447.26 97.977436
0.351844 590.38 98.687397
0.352122 651.36 98.427992
0.352401 502.75 97.926952
0.352679 531.65 98.517343
0.352958 647.98 98.130697
0.353236 384.23 98.198931
0.353515 501.84 98.293191
0.353794 515.59 98.322989
0.354072 423.07 98.462507
0.354351 422.61 98.06877
0.354629 364.74 97.643435
0.354908 616.07 98.334532
0.355186 572.24 98.500252
0.355465 461.6 98.192028
0.355744 476.97 98.228709
0.356022 519.29 97.862099
0.356301 502.76 98.501415
0.356579 459.18 98.048953
0.356858 445.63 98.481009
0.357136 345.63 98.367189
0.357415 377.66 97.798478
0.357694 366.55 98.383212
0.357972 738.23 97.907408
0.358251 291.03 98.190147
0.358529 381.7 98.211487
0.358808 435.84 97.603243
0.359086 500.74 98.139605
0.359365 472.6 97.678017
0.359644 415.73 97.809244
0.359922 417.25 98.206472
0.360201 540.79 97.742011
0.360479 540.59 98.258935
0.360758 367.16 98.010903
0.361036 528.5 98.074849
0.361315 527.63 97.976825
0.361594 490.14 97.822277
0.361872 532.98 98.47744
0.362151 464.87 98.040861
0.362429 474.2 97.932018
0.362708 565.49 98.237957
0.362986 447.85 97.71275
0.363265 703.74 98.478651
0.363544 466.25 97.766008
0.363822 455.34 97.787217
0.364101 508.17 97.711988
0.364379 431.31 97.203047
0.364658 615.24 98.404517
0.364936 562.32 97.522745
0.365215 620.22 97.863748
0.365494 335.7 97.830855
0.365772 405.87 97.45166
0.366051 468.95 97.673759
0.366329 497.9 97.395413
0.366608 513.87 97.579016
0.366886 548.23 97.9579
0.367165 359.71 97.284934
0.367444 576.27 97.837964
0.367722 555.92 97.582928
0.368001 484.42 97.66962
0.368279 498.81 98.187828
0.368558 482.1 97.788095
0.368836 464.29 97.965481
0.369115 527.01 97.912576
0.369394 545.85 98.1944
0.369672 339.73 97.597265
0.369951 583 97.812397
0.370229 540.15 97.69742
0.370508 471.36 97.759126
0.370786 591.4 98.070102
0.371065 518.51 98.131466
0.371344 380.47 97.65557
0.371622 454.49 97.779387
0.371901 671.31 97.630924
0.372179 354.29 97.543412
0.372458 451.93 97.794067
0.372736 675.59 97.81716
0.373015 659.75 98.080006
0.373294 400.17 98.982266
0.373572 607.8 100.15072
0.373851 437.84 100.74301
0.374129 440.09 101.03221
0.374408 568.65 101.8605
0.374686 349.51 101.94065
0.374965 528.25 102.44716
0.375244 534.57 103.29371
0.375522 324.65 102.525
0.375801 449.26 103.32329
0.376079 552.98 103.60195
0.376358 455.07 104.08847
0.376636 549.18 105.17967
0.376915 405.65 103.69996
0.377194 449.71 104.74514
0.377472 311.04 104.81611
0.377751 588.89 105.02139
0.378029 600.24 106.74041
0.378308 464.24 105.00714
0.378586 511.84 106.71546
0.378865 506.78 106.47369
0.379144 438.96 106.14514
0.379422 561.75 107.39525
0.379701 585.02 106.89582
0.379979 557.6 106.29337
0.380258 557.01 104.79511
0.380536 463.07 103.58147
0.380815 544.97 103.88475
0.381093 794.64 103.98087
0.381372 604.87 103.31295
0.381651 611.34 103.41544
0.381929 497.91 102.11613
0.382208 426.95 102.04479
0.382486 673.61 102.7237
0.382765 562.88 102.02547
0.383043 581.05 102.5458
0.383322 669.23 102.25494
0.383601 647.53 101.89986
0.383879 678.55 101.66943
0.384158 445.68 101.41838
0.384436 453.75 100.95442
0.384715 420.59 102.04812
0.384993 528.42 100.81897
0.385272 585.36 101.21122
0.385551 507.64 100.59111
0.385829 472.78 100.46967
0.386108 662.29 101.07883
0.386386 301.6 99.751664
0.386665 678.64 101.15459
0.386943 615.41 100.25498
0.387222 613 100.9977
0.387501 435.01 100.39463
0.387779 556.53 100.41001
0.388058 529.55 100.58843
0.388336 266.84 99.709058
0.388615 402.89 100.12725
0.388893 495.2 100.53551
0.389172 417.06 99.512931
0.389451 586.8 100.84591
0.389729 624.71 99.620489
0.390008 426.07 99.769565
0.390286 605.05 100.03236
0.390565 585.16 99.452915
0.390843 663.37 100.07582
0.391122 493.47 98.915835
0.391401 728.54 99.69421
0.391679 527.04 99.509183
0.391958 544.42 99.287838
0.392236 633 99.847788
0.392515 450.15 99.130018
0.392793 549.84 99.552041
0.393072 560.91 99.359706
0.393351 673.77 99.386112
0.393629 590.49 99.5202
0.393908 693.25 98.782822
0.394186 519.68 99.775326
0.394465 458.75 99.272789
0.394743 748.18 99.125017
0.395022 571.51 99.406885
0.395301 485.78 99.194291
0.395579 450.32 99.83144
0.395858 592.07 99.616047
0.396136 518.35 99.857665
0.396415 510.46 99.558353
0.396693 490.03 99.146116
0.396972 442.37 100.0562
0.397251 557.81 100.20751
0.397529 422.64 99.858466
0.397808 471.76 99.659937
0.398086 548.55 99.540046
0.398365 694.22 100.3915
0.398643 750.32 99.818026
0.398922 594.28 99.954502
0.399201 563.68 99.671635
0.399479 259.85 99.553287
0.399758 559.57 99.898489
0.400036 494.87 99.671337
0.400315 357.2 100.07222
0.400593 620.6 100.1267
0.400872 381.77 99.966665
0.401151 535.36 99.818642
0.401429 624.69 100.15523
0.401708 472.73 99.723951
0.401986 615.24 100.30245
0.402265 582.47 99.875729
0.402543 466.07 99.935597
0.402822 444.75 99.872533
0.403101 799.88 100.1643
0.403379 430.84 99.611497
0.403658 395.36 99.896561
0.403936 434.29 99.333581
0.404215 457.12 100.20634
0.404493 498.76 99.979954
0.404772 606.93 100.05693
0.405051 685.39 100.36754
0.405329 523.45 99.283201
0.405608 650.65 100.50068
0.405886 429.73 99.731387
0.406165 404.98 100.14848
0.406443 649.62 99.934618
0.406722 501.94 99.922346
0.407001 558.62 100.55467
0.407279 549.47 100.17709
0.407558 419.69 99.994605
0.407836 604.38 99.887397
0.408115 479.94 99.845262
0.408393 518.23 100.32974
0.408672 308.31 99.340381
0.408951 551.79 100.7914
0.409229 582.56 100.1584
0.409508 552.97 99.609842
0.409786 583.81 100.08549
0.410065 490.98 99.297415
0.410343 419.99 100.41247
0.410622 469.39 100.39617
0.410901 530.94 100.0506
0.411179 545.68 100.23224
0.411458 589.84 99.646343
0.411736 315 99.358464
0.412015 644.37 99.768331
0.412293 488.63 99.961064
0.412572 661.83 100.23541
0.412851 665.82 99.728531
0.413129 600.36 99.809524
0.413408 594.69 100.01021
0.413686 651.37 100.06605
0.413965 663.04 100.01949
0.414243 553.16 100.10238
0.414522 360.84 99.577883
0.414801 394.8 99.934146
0.415079 751.24 99.767932
0.415358 403.31 99.548136
0.415636 551.06 99.787484
0.415915 452.13 99.614704
0.416193 605.15 99.63914
0.416472 553.13 99.498817
0.416751 565.68 99.082265
0.417029 426.25 100.113
0.417308 569.39 99.266998
0.417586 567.41 99.146647
0.417865 321.78 99.051601
0.418143 474.35 99.142877
0.418422 534.31 99.404579
0.4187 616.15 98.995277
0.418979 516.65 99.203981
0.419258 688.05 99.459193
0.419536 464.51 98.956438
0.419815 561.71 99.368457
0.420093 414.71 99.326059
0.420372 551.72 99.822749
0.42065 370.78 99.282088
0.420929 479.43 99.082397
0.421208 485.31 99.492607
0.421486 294.15 98.914705
0.421765 639.5 100.01414
0.422043 536.29 99.801042
0.422322 508.48 100.02503
0.4226 699.55 100.03657
0.422879 529.54 99.453422
0.423158 409.89 100.04412
0.423436 581.54 99.976823
0.423715 495.1 99.743148
0.423993 436.15 99.522688
0.424272 356.97 99.647239
0.42455 589.83 99.647092
0.424829 563.29 99.969622
0.425108 586.6 100.15385
0.425386 763.66 100.25308
0.425665 412.8 99.923462
0.425943 530.96 99.726599
0.426222 410.42 99.444778
0.4265 614.36 100.379
0.426779 553.76 100.15697
0.427058 653.77 100.07429
0.427336 606.63 100.24354
0.427615 630.52 100.22445
0.427893 470.83 99.860149
0.428172 647.34 99.888636
0.42845 590.63 100.4056
0.428729 517.37 99.465429
0.429008 428.61 100.04348
0.429286 426.6 99.460028
0.429565 585.36 100.34339
0.429843 421.39 99.542798
0.430122 453.38 99.529617
0.4304 529.3 100.57099
0.430679 533.29 99.825464
0.430958 610.71 100.42844
0.431236 697.2 100.68451
0.431515 599.13 100.15025
0.431793 588.04 100.52875
0.432072 575.53 99.943337
0.43235 680.9 102.04162
0.432629 540.77 102.99142
0.432908 896.76 103.72107
0.433186 739.78 105.1435
0.433465 489.6 104.57273
0.433743 409.33 105.73306
0.434022 478.21 105.57875
0.4343 434.53 106.52847
0.434579 535.48 106.97513
0.434858 667.05 106.98711
0.435136 369.19 107.74107
0.435415 546.2 108.19371
0.435693 558.66 108.02139
0.435972 581.78 109.57487
0.43625 518.42 109.21398
0.436529 474.97 109.8997
0.436808 597.29 110.69875
0.437086 409.61 109.73646
0.437365 636.62 111.49499
0.437643 443.9 110.51721
0.437922 417.02 111.93872
0.4382 474.67 111.57917
0.438479 381.07 112.55074
0.438758 505.19 112.90495
0.439036 510.71 110.24861
0.439315 408.82 109.19
0.439593 665.64 108.54744
0.439872 528.22 108.51292
0.44015 662.22 108.12032
0.440429 466.62 107.05977
0.440708 403.57 106.24551
0.440986 699.58 106.64204
0.441265 502.34 106.65686
0.441543 459.18 106.80637
0.441822 496.93 106.32806
0.4421 465.66 106.08148
0.442379 628.93 105.85464
0.442658 504.84 105.32055
0.442936 428.35 106.00473
0.443215 616.05 105.75032
0.443493 587.89 105.58115
0.443772 602.05 105.12212
0.44405 428.32 105.07093
0.444329 694.74 105.20773
0.444608 466.63 105.10072
0.444886 424.27 105.35351
0.445165 486.47 104.74699
0.445443 418.72 104.94206
0.445722 551.31 104.88308
0.446 425.75 105.25074
0.446279 398.35 104.53226
0.446558 442.33 104.96219
0.446836 512.18 105.01593
0.447115 464.86 104.3171
0.447393 424.12 104.36897
0.447672 528 104.27706
0.44795 412.73 104.47205
0.448229 568.41 104.33382
0.448508 496.46 104.17187
0.448786 238.41 104.26556
0.449065 561.45 104.58053
0.449343 365.94 103.64867
0.449622 440.96 103.82102
0.4499 406.99 103.35597
0.450179 657.21 104.05967
0.450458 564.34 103.58507
0.450736 525.31 103.62706
0.451015 434.01 102.80771
0.451293 303.85 103.36919
0.451572 396.19 103.43125
0.45185 666.09 103.75308
0.452129 635.47 103.26576
0.452408 739.63 103.50028
0.452686 702.16 103.48133
0.452965 343.16 102.14281
0.453243 637.98 103.94312
0.453522 445.19 102.92049
0.4538 571.7 103.08916
0.454079 717.93 103.32066
0.454357 510.81 102.65862
0.454636 351.93 103.40623
0.454915 504.65 103.49032
0.455193 418.06 102.50055
0.455472 476.14 103.4317
0.45575 303.98 102.34023
0.456029 629.51 103.05731
0.456307 528.29 103.3767
0.456586 500.5 102.79525
0.456865 417.89 102.84137
0.457143 600.97 102.91219
0.457422 611.95 103.27478
0.4577 344.34 102.66544
0.457979 625.08 103.11347
0.458257 594.94 103.39829
0.458536 354.25 102.66424
0.458815 544.49 103.30804
0.459093 399.76 103.02975
0.459372 390.56 103.04424
0.45965 754.29 103.50863
0.459929 405.21 102.39102
0.460207 299.83 103.47124
0.460486 434.83 102.71068
0.460765 282.34 103.10544
0.461043 593.49 102.9368
0.461322 471.4 103.10714
0.4616 534.29 103.27802
0.461879 339.22 102.67447
0.462157 537.39 103.12966
0.462436 483.75 102.69161
0.462715 554.21 103.07563
0.462993 490.28 102.94674
0.463272 412.09 103.08829
0.46355 493.85 103.35296
0.463829 420.72 102.78778
0.464107 712 103.16347
0.464386 397.71 103.07002
0.464665 381.69 102.04496
0.464943 531.79 103.44727
0.465222 363.34 102.53024
0.4655 394.51 103.00464
0.465779 487.22 102.81247
0.466057 395.14 102.7451
0.466336 615.9 103.36162
0.466615 564.21 102.7566
0.466893 632.4 103.068
0.467172 608.47 103.09261
0.46745 609.03 103.51182
0.467729 714.63 103.63872
0.468007 555.61 102.82879
0.468286 615.91 103.09218
0.468565 597.67 102.86029
0.468843 603.01 102.97043
0.469122 653.8 102.86235
0.4694 683.53 102.72917
0.469679 354.95 103.17253
0.469957 520.43 101.99836
0.470236 540.75 102.78448
0.470515 508.09 102.48411
0.470793 182.62 102.12165
0.471072 577.41 102.7388
0.47135 477.19 102.4369
0.471629 621.71 102.76545
0.471907 368.82 102.54925
0.472186 452.26 102.50748
0.472465 639.36 102.69239
0.472743 573.53 103.42737
0.473022 550.42 102.37601
0.4733 776.23 102.87247
0.473579 481.01 102.46005
0.473857 630.69 102.79648
0.474136 561.48 102.90006
0.474415 498.19 102.81399
0.474693 604.02 102.35591
0.474972 491.62 103.34095
0.47525 517.72 102.3962
0.475529 703.79 103.14878
0.475807 531.36 102.881
0.476086 487.59 102.12322
0.476365 423.27 103.39306
0.476643 633.83 102.74559
0.476922 466.94 102.91403
0.4772 580.99 103.22064
0.477479 497.9 102.78958
0.477757 698.33 103.58982
0.478036 503.12 102.79399
0.478315 472.48 103.28513
0.478593 727.02 103.21993
0.478872 414.72 102.92839
0.47915 578.77 103.69336
0.479429 584.55 101.80095
0.479707 537.53 103.49751
0.479986 627.98 102.63447
0.480265 443.93 103.05575
0.480543 586.6 103.07178
0.480822 604.39 103.23534
0.4811 395.68 103.18415
0.481379 698.95 103.3773
0.481657 614.77 103.13217
0.481936 600.67 103.20907
0.482215 572.06 103.21431
0.482493 388.21 103.24838
0.482772 652.05 102.99702
0.48305 717.69 103.73517
0.483329 603.87 103.43235
0.483607 467.55 102.71258
0.483886 692.92 103.40524
0.484165 567.06 102.72653
0.484443 458.29 103.40567
0.484722 582.94 102.6763
0.485 527.68 102.94675
0.485279 398.14 102.70545
0.485557 350.64 102.43444
0.485836 546.02 103.28559
0.486115 556.56 102.35093
0.486393 535.45 102.58965
0.486672 507.97 102.94683
0.48695 596.2 102.20987
0.487229 458.49 102.87008
0.487507 443.38 101.93319
0.487786 311.41 102.98654
0.488065 577.06 102.31788
0.488343 475.84 102.60087
0.488622 454.64 102.19646
0.4889 698.16 102.67496
0.489179 502.17 102.71061
0.489457 385.04 102.25827
0.489736 613.69 103.20319
0.490014 790.77 102.45747
0.490293 361.47 103.07081
0.490572 416.39 102.73606
0.49085 502.56 101.57919
0.491129 663.05 102.51108
0.491407 580.68 103.59146
0.491686 504.7 105.57386
0.491964 488.25 106.33848
0.492243 489.77 105.92326
0.492522 575.85 107.97181
0.4928 426.36 108.07716
0.493079 696.48 108.75013
0.493357 534.2 109.31154
0.493636 687.2 109.07356
0.493914 682.06 110.36143
0.494193 438.67 109.39765
0.494472 363.71 110.66885
0.49475 648.61 111.14241
0.495029 493.02 110.99467
0.495307 484 112.35114
0.495586 388.11 111.506
0.495864 794.08 113.24182
0.496143 572.62 113.45608
0.496422 639.38 113.96243
0.4967 494.95 114.57488
0.496979 576.79 114.33055
0.497257 595.47 115.42952
0.497536 477.92 114.96816
0.497814 624.11 115.60895
0.498093 689.53 114.16998
0.498372 417.98 111.74931
0.49865 401.7 112.48736
0.498929 470.82 110.64129
0.499207 597.95 110.66165
0.499486 660.75 110.33052
0.499764 528.09 110.25839
0.500043 460.84 109.93646
0.500322 458.54 109.40644
0.5006 500.9 108.85542
0.500879 482.27 108.73198
0.501157 493.52 108.64064
0.501436 591.94 108.52874
0.501714 550.78 108.33458
0.501993 602.06 108.10535
0.502272 546.52 107.94131
0.50255 595.76 108.5825
0.502829 652.6 107.38365
0.503107 604.84 108.40206
0.503386 329.52 107.94452
0.503664 514.08 107.06649
0.503943 429.42 107.89684
0.504222 569.9 106.63816
0.5045 565.06 107.97964
0.504779 622.16 107.04783
0.505057 472.12 107.08187
0.505336 433.86 107.05096
0.505614 573.2 107.09323
0.505893 454.42 107.38204
0.506172 755.19 107.098
0.50645 571.82 106.72769
0.506729 643.91 107.63848
0.507007 558.78 106.7828
0.507286 481.85 106.85322
0.507564 745.26 106.85786
0.507843 575.95 107.15865
0.508122 688.87 107.6848
0.5084 552.8 106.55595
0.508679 691.77 107.67908
0.508957 511.93 106.52401
0.509236 622.44 107.06264
0.509514 735.71 106.8111
0.509793 400.81 106.44456
0.510072 354.02 106.53353
0.51035 467.23 105.64731
0.510629 732.57 107.22792
0.510907 559.84 106.61419
0.511186 700.98 106.51594
0.511464 628.76 107.35236
0.511743 579.09 106.4979
0.512022 688.5 106.80043
0.5123 537.31 105.75874
0.512579 630.42 106.40875
0.512857 517 106.56197
0.513136 641.53 106.37163
0.513414 619.67 106.68447
0.513693 573.04 106.13139
0.513972 400.56 106.50729
0.51425 613.54 105.96679
0.514529 550.72 106.4389
0.514807 592.07 106.73218
0.515086 475.61 106.49321
0.515364 493.3 106.01902
0.515643 705.29 106.1566
0.515922 629.69 106.4923
0.5162 519.33 106.13566
0.516479 388.22 106.63737
0.516757 547.31 106.1469
0.517036 559.28 106.10203
0.517314 726.72 106.50894
0.517593 565.52 106.04425
0.517872 653.13 106.34881
0.51815 385 106.89059
0.518429 701.37 106.14791
0.518707 468.17 106.61065
0.518986 453.39 105.78244
0.519264 624.58 105.92425
0.519543 370.41 105.87562
0.519822 596.43 106.20873
0.5201 523.35 106.0628
0.520379 567.01 105.91974
0.520657 569.98 106.95957
0.520936 667.01 106.22238
0.521214 703.15 106.263
0.521493 685.2 105.88946
0.521772 694.39 105.95781
0.52205 502.17 106.04465
0.522329 588.68 106.50283
0.522607 580.38 105.52218
0.522886 516.71 106.18729
0.523164 699.49 106.18394
0.523443 509.33 105.82016
0.523722 452.63 105.6991
0.524 597.84 105.74754
0.524279 610.45 105.36854
0.524557 605.68 105.40631
0.524836 600.01 105.59156
0.525114 512.02 105.18552
0.525393 708.86 105.41518
0.525671 674.21 105.5359
0.52595 461.69 105.27514
0.526229 458.81 105.18449
0.526507 644.83 105.01928
0.526786 551.39 105.07296
0.527064 617.29 104.77529
0.527343 496 104.50676
0.527621 469.17 104.85824
0.5279 233.25 104.8479
0.528179 565.51 104.64205
0.528457 627.59 105.1078
0.528736 546.11 104.92268
0.529014 701.04 104.39469
0.529293 561.25 105.03966
0.529571 519.65 104.63607
0.52985 487.48 105.31766
0.530129 567.43 104.7306
0.530407 585.51 104.86635
0.530686 576.52 105.07145
0.530964 446.09 105.01939
0.531243 528.48 104.87967
0.531521 596.45 105.33712
0.5318 440.45 105.18677
0.532079 607.88 105.7335
0.532357 476.2 105.14516
0.532636 613.07 104.49341
0.532914 561.8 105.39255
0.533193 482.65 104.63924
0.533471 535.62 104.99296
0.53375 401.98 104.38767
0.534029 353.7 104.98589
0.534307 449.9 105.26916
0.534586 457.55 104.82175
0.534864 543.35 105.37502
0.535143 548.21 105.54926
0.535421 421.46 104.81043
0.5357 613.06 105.89899
0.535979 581.59 104.8518
0.536257 677.79 105.2664
0.536536 553.35 105.32944
0.536814 604.11 104.96973
0.537093 686.91 105.33601
0.537371 604.59 105.15533
0.53765 412.92 105.07416
0.537929 537.48 104.34203
0.538207 560.54 104.47901
0.538486 540.17 105.23734
0.538764 572.12 105.03967
0.539043 374.14 104.5986
0.539321 684.16 105.09419
0.5396 699.53 104.95912
0.539879 537.33 104.6943
0.540157 688.07 104.5867
0.540436 605.4 104.63518
0.540714 578.57 104.70175
0.540993 510.24 104.20708
0.541271 401.87 104.68617
0.54155 425.24 104.08992
0.541829 548.46 104.27826
0.542107 474.74 103.87209
0.542386 618.02 104.16515
0.542664 495.84 104.18757
0.542943 665.22 104.30787
0.543221 609.14 104.09893
0.5435 593.63 104.21277
0.543779 600.73 103.95106
0.544057 633.46 104.24237
0.544336 594.77 103.88082
0.544614 551.35 104.30472
0.544893 580.66 104.04533
0.545171 589.15 103.76346
0.54545 448.89 103.5234
0.545729 520.81 103.92204
0.546007 678.98 104.56267
0.546286 423.68 104.24774
0.546564 393.8 103.42671
0.546843 662.78 104.10697
0.547121 535.77 103.59932
0.5474 609.17 104.10565
0.547679 532.78 104.71141
0.547957 354.7 104.02846
0.548236 428.1 104.11649
0.548514 571.94 103.91773
0.548793 565.73 104.39805
0.549071 624.11 104.64347
0.54935 511.18 104.48032
0.549629 503.15 104.15515
0.549907 633.65 104.10239
0.550186 620.44 104.80844
0.550464 666.03 106.33376
0.550743 491.85 107.99258
0.551021 547.47 109.52429
0.5513 486.17 109.95901
0.551579 660.47 110.60245
0.551857 548.68 111.75497
0.552136 538.91 111.38972
0.552414 590.52 112.69311
0.552693 672.36 113.49995
0.552971 647.94 114.15114
0.55325 750.7 113.53309
0.553529 623.99 114.75906
0.553807 534.43 115.58998
0.554086 423.24 115.09648
0.554364 468.82 116.28146
0.554643 507.87 117.19703
0.554921 646.26 117.2303
0.5552 481.42 118.12636
0.555479 511.4 118.45703
0.555757 667.3 118.66519
0.556036 494.39 118.77382
0.556314 690.27 119.58202
0.556593 503.67 120.60964
0.556871 581.99 120.06093
0.55715 400.1 117.9501
0.557429 674.9 116.86348
0.557707 297.76 115.55001
0.557986 683.32 114.27239
0.558264 545.26 114.48554
0.558543 532.44 112.91617
0.558821 471.52 113.22219
0.5591 710.33 113.30138
0.559379 513.88 112.7564
0.559657 539.03 112.45686
0.559936 576.85 112.24544
0.560214 658.89 112.56633
0.560493 423.05 111.65339
0.560771 690.06 111.71362
0.56105 714.64 111.83783
0.561329 516.92 111.11795
0.561607 627.67 111.15612
0.561886 659.14 111.20901
0.562164 418.85 111.02434
0.562443 726.23 111.11736
0.562721 726.05 110.47684
0.563 535.09 110.46972
0.563278 489.77 110.87393
0.563557 320.43 110.14571
0.563836 541.1 110.50013
0.564114 416.99 110.11087
0.564393 427.25 109.97692
0.564671 375.56 110.05271
0.56495 464.17 110.18672
0.565228 484.6 110.26288
0.565507 388.23 109.96948
0.565786 339.31 109.61811
0.566064 504.42 110.22617
0.566343 525.12 109.56948
0.566621 620.73 110.40725
0.5669 695.4 110.39511
0.567178 505.65 109.60774
0.567457 658.89 110.52996
0.567736 678.66 109.45416
0.568014 441.97 109.53092
0.568293 394.53 109.53671
0.568571 401.29 108.38017
0.56885 477.2 109.43335
0.569128 458.76 108.62981
0.569407 559.92 109.41506
0.569686 833.43 109.86036
0.569964 565.68 108.14133
0.570243 665.93 108.92998
0.570521 613.8 108.59288
0.5708 434.08 108.4887
0.571078 495.6 108.69598
0.571357 686.82 108.20558
0.571636 562.85 108.45005
0.571914 452.48 108.31416
0.572193 523.48 108.17241
0.572471 775.5 108.73206
0.57275 530.61 108.53197
0.573028 568.86 108.54986
0.573307 590.67 108.5927
0.573586 639.87 108.36127
0.573864 416.96 107.97753
0.574143 551.98 108.73758
0.574421 624.85 108.09219
0.5747 522.44 108.14629
0.574978 701.77 108.11156
0.575257 630.3 108.75759
0.575536 633.74 108.1113
0.575814 660.03 108.29378
0.576093 430.29 108.22612
0.576371 442.03 107.64106
0.57665 556.92 108.23135
0.576928 477.82 107.92294
0.577207 425.98 107.99205
0.577486 735.47 108.01061
0.577764 642.07 108.03048
0.578043 458.8 107.93115
0.578321 409.19 108.10595
0.5786 638.1 107.72787
0.578878 470.16 108.50884
0.579157 720.94 107.99942
0.579436 499.25 108.02033
0.579714 443.25 107.16367
0.579993 504.17 107.72061
0.580271 676.34 108.13474
0.58055 325.54 106.61141
0.580828 570.77 107.07763
0.581107 517.18 106.616
0.581386 366.22 107.50957
0.581664 533.8 106.65607
0.581943 619.84 107.3872
0.582221 469.79 107.73968
0.5825 433.2 106.92829
0.582778 404.65 107.298
0.583057 617.76 107.36128
0.583336 641.67 107.38815
0.583614 518.17 107.52053
0.583893 498.13 106.86675
0.584171 665.32 107.48984
0.58445 606 107.69159
0.584728 622.35 107.77877
0.585007 616.45 107.68083
0.585286 414.22 106.80335
0.585564 556.37 107.36594
0.585843 505.7 107.72482
0.586121 600.6 107.47637
0.5864 542.15 107.6916
0.586678 629.32 106.9952
0.586957 382.38 107.33774
0.587236 553.29 107.5901
0.587514 486.27 106.71077
0.587793 490.54 107.35138
0.588071 651.91 107.07227
0.58835 621.86 107.21096
0.588628 591.07 106.76433
0.588907 404.41 106.74419
0.589186 128.85 106.66445
0.589464 457.74 107.45533
0.589743 478.87 107.1667
0.590021 669.75 107.17829
0.5903 457.63 105.76209
0.590578 501.41 107.19143
0.590857 650.23 106.57807
0.591136 472.23 106.2843
0.591414 643.84 106.77169
0.591693 367.36 106.2522
0.591971 627.55 107.13736
0.59225 613.77 106.99308
0.592528 484.07 106.90213
0.592807 625.3 106.42863
0.593086 599.57 106.74646
0.593364 519.24 106.63944
0.593643 573.63 106.57208
0.593921 287.89 106.55979
0.5942 464.51 106.51509
0.594478 589.61 106.749
0.594757 521.51 106.24161
0.595036 523.13 106.60898
0.595314 418.18 106.607
0.595593 542.68 106.69467
0.595871 577.18 106.70557
0.59615 567.8 106.64401
0.596428 764.39 107.17585
0.596707 623.83 106.59199
0.596986 567.49 106.61384
0.597264 592.51 106.43415
0.597543 562.49 106.56637
0.597821 402.91 105.98576
0.5981 418.83 105.95521
0.598378 349.99 106.11545
0.598657 512.46 106.06951
0.598935 472.94 106.20303
0.599214 697.9 106.53303
0.599493 385.49 106.48852
0.599771 597.63 106.21091
0.60005 541.31 106.24153
0.600328 547.48 106.40391
0.600607 505 106.56357
0.600885 458.3 105.80257
0.601164 325.36 106.4789
0.601443 455.66 106.58163
0.601721 572.61 106.31936
0.602 611.11 106.14021
0.602278 537.43 106.32397
0.602557 672.08 106.19435
0.602835 414.57 106.16894
0.603114 552.1 106.39732
0.603393 548.01 106.54584
0.603671 328.25 106.72735
0.60395 495.5 106.31098
0.604228 376.45 106.55324
0.604507 547.68 106.75263
0.604785 511.07 106.8573
0.605064 571.16 106.80105
0.605343 694.59 106.66827
0.605621 606.6 106.57928
0.6059 262.93 106.42243
0.606178 601.22 107.16614
0.606457 498.95 106.75521
0.606735 611.38 107.04607
0.607014 386.55 106.32321
0.607293 684.39 107.09782
0.607571 612.95 106.5741
0.60785 688.72 107.0382
0.608128 519.81 106.46299
0.608407 547.67 107.06916
0.608685 592.41 106.84761
0.608964 455.89 106.74107
0.609243 698.41 106.73152
0.609521 560.78 108.93824
0.6098 451.08 110.49114
0.610078 876.96 112.40309
0.610357 718.7 112.60551
0.610635 469.76 113.86542
0.610914 439.08 114.67856
0.611193 409.2 114.93022
0.611471 731.61 116.23472
0.61175 581.81 116.65961
0.612028 425.76 116.9119
0.612307 578.68 117.12656
0.612585 313.32 118.21732
0.612864 499.01 118.25186
0.613143 468.29 118.89214
0.613421 611.65 119.72524
0.6137 438.04 120.37418
0.613978 436.18 120.01641
0.614257 628.85 120.59107
0.614535 557.03 122.32181
0.614814 512.36 121.91472
0.615093 338.43 122.14918
0.615371 431.8 123.19114
0.61565 559.8 123.04309
0.615928 337.69 123.27121
0.616207 494.24 121.43964
0.616485 316.17 118.65086
0.616764 367.56 117.77186
0.617043 463.86 116.04804
0.617321 638.36 116.18222
0.6176 636.81 115.80432
0.617878 536.46 114.89231
0.618157 629.26 114.84038
0.618435 555.52 114.66362
0.618714 725.88 114.81215
0.618993 305.28 114.34049
0.619271 348.38 113.42659
0.61955 566.45 114.4789
0.619828 512.64 112.90981
0.620107 559.14 113.82524
0.620385 428.91 113.72675
0.620664 501.65 112.57301
0.620943 413.51 112.66352
0.621221 573.08 112.82648
0.6215 299.32 112.10724
0.621778 494.77 112.49086
0.622057 563.99 112.21879
0.622335 291.54 112.39813
0.622614 340.4 112.32955
0.622893 575.28 111.66031
0.623171 681.04 112.85534
0.62345 522.92 112.67127
0.623728 335.89 112.08701
0.624007 453.4 112.41982
0.624285 392.84 111.94308
0.624564 570.26 112.43823
0.624843 526.57 112.43386
0.625121 590.77 112.07959
0.6254 429.34 111.91205
0.625678 557.37 111.53357
0.625957 569.52 112.15641
0.626235 556.55 112.28807
0.626514 564.27 111.51874
0.626793 536.2 112.12711
0.627071 586.75 111.51497
0.62735 418.64 111.45074
0.627628 400.1 111.23494
0.627907 757.52 112.08114
0.628185 537.08 111.1155
0.628464 349.61 111.84365
0.628743 400.5 110.81599
0.629021 508.9 111.65074
0.6293 446.19 110.78653
0.629578 405.08 111.44548
0.629857 673.88 111.7825
0.630135 479.12 111.20282
0.630414 579.61 110.81459
0.630693 679.08 111.27978
0.630971 721.19 111.23719
0.63125 656.08 111.31329
0.631528 499.37 110.91254
0.631807 699.13 111.5149
0.632085 409.55 110.69849
0.632364 521.05 110.60076
0.632643 634.54 111.59875
0.632921 633.4 110.71969
0.6332 481.48 110.79021
0.633478 554.4 111.07609
0.633757 492.23 110.98756
0.634035 526.9 110.94747
0.634314 334.44 110.62785
0.634592 472.6 110.50475
0.634871 407.77 111.18321
0.63515 659.25 110.57166
0.635428 494.44 111.31577
0.635707 396.64 110.40282
0.635985 608.9 110.86765
0.636264 622.27 110.06466
0.636542 605.24 110.4668
0.636821 569.2 110.07082
0.6371 613.23 109.85129
0.637378 382.14 109.72471
0.637657 550.43 110.05598
0.637935 516.09 109.17346
0.638214 462.47 109.98368
0.638492 510.85 109.89053
0.638771 647.85 109.70403
0.63905 700.21 109.98783
0.639328 592.57 109.70601
0.639607 695.65 109.90728
0.639885 389.98 108.97297
0.640164 526.36 109.45391
0.640442 395.6 108.92633
0.640721 236.91 108.60741
0.641 407.02 108.31141
0.641278 454.97 109.34051
0.641557 380.52 108.80925
0.641835 519.88 108.74209
0.642114 484.87 109.35452
0.642392 606.96 108.77091
0.642671 491.68 109.52047
0.64295 646.08 109.271
0.643228 487.53 109.28817
0.643507 596.76 109.26557
0.643785 402.92 109.5023
0.644064 552.56 109.46492
0.644342 592.95 109.20563
0.644621 661.34 109.07751
0.6449 458.81 109.3172
0.645178 495.76 109.53867
0.645457 365.3 108.93899
0.645735 463.14 109.0032
0.646014 612.77 109.14934
0.646292 539.53 109.80543
0.646571 187.72 109.028
0.64685 403.84 109.03895
0.647128 743.63 109.42393
0.647407 704.43 109.04086
0.647685 485.03 109.13766
0.647964 643.07 109.77424
0.648242 550.82 109.28689
0.648521 336.94 109.2313
0.6488 510.16 109.26803
0.649078 401.75 108.94858
0.649357 606.44 109.07974
0.649635 470.72 108.8222
0.649914 416.84 109.25003
0.650192 437.79 109.28734
0.650471 542.93 109.18234
0.65075 369.74 109.35646
0.651028 472.83 109.34187
0.651307 455.03 108.79033
0.651585 570.01 109.29001
0.651864 539.3 109.01993
0.652142 677.68 109.33039
0.652421 547.05 108.18283
0.6527 635.23 108.92677
0.652978 537.48 109.20203
0.653257 316.73 108.71429
0.653535 656.55 109.03381
0.653814 739.61 108.94606
0.654092 661.83 108.78183
0.654371 585.52 109.49987
0.65465 545.85 108.67074
0.654928 596.97 109.61889
0.655207 275.85 108.00219
0.655485 547.76 109.09923
0.655764 493.95 108.96759
0.656042 238.23 108.52922
0.656321 464.5 108.60463
0.6566 568.8 108.98614
0.656878 387.71 108.69401
0.657157 534.75 109.16405
0.657435 463.48 108.97307
0.657714 497.52 109.15614
0.657992 266.69 108.92375
0.658271 690.21 108.95738
0.65855 580.69 109.49125
0.658828 511.85 108.58908
0.659107 442.73 109.56107
0.659385 542.67 109.91115
0.659664 479.55 109.92834
0.659942 456.4 108.94243
0.660221 366.35 108.80906
0.6605 342.43 108.81333
0.660778 307.41 109.20994
0.661057 545.03 109.62027
0.661335 452.02 108.7771
0.661614 532.52 109.58357
0.661892 486.4 109.02796
0.662171 417.83 108.4183
0.66245 519.65 108.8875
0.662728 488.7 109.38566
0.663007 515.93 109.16864
0.663285 474.69 108.90281
0.663564 538.42 108.47697
0.663842 392.25 109.01609
0.664121 546.61 108.80428
0.6644 564.65 108.96614
0.664678 356 108.31789
0.664957 610.52 108.55088
0.665235 615.89 108.60558
0.665514 577.28 108.52323
0.665792 349.69 108.66524
0.666071 385.59 107.91432
0.66635 465.12 108.32843
0.666628 488.03 108.49501
0.666907 483.69 108.54973
0.667185 542.23 108.29798
0.667464 344.44 108.58407
0.667742 594.56 108.22964
0.668021 536.65 108.63067
0.6683 383.58 108.19515
0.668578 637.78 111.01968
0.668857 485.99 112.38547
0.669135 567.82 113.77538
0.669414 294.58 114.53705
0.669692 300.98 116.33784
0.669971 402.24 115.6946
0.67025 139.76 116.40386
0.670528 526.89 117.1763
0.670807 558.87 118.28687
0.671085 682.39 119.49424
0.671364 402.11 120.16809
0.671642 585.26 120.75073
0.671921 379.64 120.57972
0.672199 335.86 122.66111
0.672478 474.76 122.38058
0.672757 239.32 122.7484
0.673035 526.78 124.29445
0.673314 582.89 124.73134
0.673592 509.46 124.69756
0.673871 609.54 125.99998
0.674149 727.53 126.07478
0.674428 797.02 127.252
0.674707 579.45 127.66352
0.674985 562.05 128.01277
0.675264 519.79 128.66924
0.675542 446.24 128.45448
0.675821 367.08 129.13091
0.676099 542.38 130.52305
0.676378 437.54 130.28338
0.676657 281.17 131.49899
0.676935 439.74 131.92812
0.677214 320.51 131.7025
0.677492 433.67 132.88006
0.677771 760.07 133.58349
0.678049 577.3 134.68938
0.678328 575.13 134.63188
0.678607 479.33 135.5698
0.678885 344.71 135.12997
0.679164 551.97 135.38067
0.679442 442.12 136.18917
0.679721 136.65 137.80261
0.679999 433.76 137.81233
0.680278 155.79 138.10915
0.680557 443.42 139.03505
0.680835 481.97 140.40091
0.681114 494 140.85922
0.681392 245.68 140.42029
0.681671 595.18 141.36054
0.681949 598.93 142.0765
0.682228 507.34 142.13375
0.682507 418.86 143.53833
0.682785 169.06 142.27567
0.683064 234.04 143.28651
0.683342 546.93 144.43113
0.683621 573.97 144.37682
0.683899 352.86 143.14151
0.684178 402.41 144.09739
0.684457 267.49 144.49249
0.684735 340.45 146.23086
0.685014 337.3 145.75937
0.685292 297.74 146.48198
0.685571 382.06 147.60191
0.685849 284.5 147.73203
0.686128 326.51 148.08106
0.686407 229.14 148.33066
0.686685 455.15 150.53493
0.686964 585.69 151.30119
0.687242 329.95 149.22233
0.687521 596.77 151.93586
0.687799 440.79 153.28687
0.688078 555.15 152.73069
0.688357 612.93 153.47141
0.688635 476.52 154.78954
0.688914 393.47 154.77104
0.689192 545.39 156.49092
0.689471 705.96 156.34632
0.689749 617.04 159.22889
0.690028 307.02 157.49237
0.690307 359.32 159.47873
0.690585 68.14 158.3663
0.690864 278.75 159.81835
0.691142 411.37 161.37131
0.691421 448.09 161.20492
0.691699 194.14 161.83724
0.691978 715.05 164.31781
0.692257 385.26 163.28746
0.692535 696.63 164.63364
0.692814 406.93 164.96153
0.693092 495.33 163.18013
0.693371 499.01 167.12284
0.693649 747.28 166.14722
0.693928 361.97 167.87841
0.694207 818.13 168.32518
0.694485 513.59 168.13325
0.694764 512.95 168.66333
0.695042 479.8 170.39905
0.695321 698.95 171.22885
0.695599 517.56 172.71544
0.695878 288.66 172.754
0.696157 508.8 174.47064
0.696435 380.85 174.0471
0.696714 329.07 174.0577
0.696992 317.14 176.90625
0.697271 441.27 177.78505
0.697549 597.84 178.6564
0.697828 72.57 178.33815
0.698107 388.76 178.49705
0.698385 349.67 181.69795
0.698664 814.79 182.78786
0.698942 325.1 182.17214
0.699221 444.02 184.32263
0.699499 451.11 184.683
0.699778 135.38 186.37537
0.700057 94.25 185.47262
0.700335 334.15 185.80251
0.700614 238.79 190.8773
0.700892 568.72 188.94562
0.701171 320.34 192.30341
0.701449 514.42 193.04409
0.701728 474.67 194.0419
0.702007 532.34 199.45676
0.702285 308.05 197.86305
0.702564 598.98 198.2291
0.702842 339.42 200.97291
0.703121 914.02 203.94462
0.703399 724.73 203.31713
0.703678 325 203.97129
0.703957 474.36 206.52656
0.704235 628.43 209.9582
0.704514 210.96 208.47785
0.704792 279.43 209.65128
0.705071 514 212.96606
0.705349 112.26 213.84454
0.705628 496.17 218.48516
0.705907 790.95 216.2933
0.706185 772.08 221.15186
0.706464 119.36 220.26102
0.706742 774.23 220.79655
0.707021 643.13 222.26723
0.707299 387 221.86228
0.707578 530.05 224.12541
0.707856 698.23 227.00715
0.708135 572.42 226.13629
0.708414 408.09 224.80923
0.708692 404.15 228.43645
0.708971 -190.61 227.38655
0.709249 814.32 234.23956
0.709528 535.03 230.12268
0.709806 73.53 232.64603
0.710085 599.75 236.52155
0.710364 477.2 241.35902
0.710642 396.64 240.59986
0.710921 727.53 242.56575
0.711199 906.67 250.14285
0.711478 841.66 256.37477
0.711756 14.1 250.8116
0.712035 610.95 254.86377
0.712314 563.64 261.82491
0.712592 793.51 264.8192
0.712871 602.79 268.52939
0.713149 389.28 266.20661
0.713428 459.11 273.95122
0.713706 865.35 279.17265
0.713985 491.76 281.50955
0.714264 685.74 282.36516
0.714542 166.3 282.87057
0.714821 677.25 289.10593
0.715099 179.25 292.82115
0.715378 586.93 288.01491
0.715656 391.55 292.3268
0.715935 676.56 298.07684
0.716214 716.24 301.44991
0.716492 101.37 298.56544
0.716771 386.74 303.26274
0.717049 618.8 308.90436
0.717328 106.36 313.05025
0.717606 326.1 310.83102
0.717885 481.18 309.69721
0.718164 592.28 316.7443
0.718442 1107.52 325.60834
0.718721 808.45 331.11389
0.718999 567.23 316.63152
0.719278 104.81 330.6812
0.719556 422.41 333.64271
0.719835 1092.24 343.75302
0.720114 37.07 337.67767
0.720392 486.97 339.40311
0.720671 61.4 342.61964
0.720949 -158.13 360.09747
0.721228 106.13 345.39553
0.721506 268.32 351.81065
0.721785 287.89 363.4814
0.722064 754.43 365.54083
0.722342 304.56 363.4187
0.722621 750.85 371.9153
0.722899 947.67 381.46843
0.723178 833.14 383.57925
0.723456 170.74 380.33268
0.723735 -32.88 377.01394
0.724014 739.35 394.45308
0.724292 416.11 403.38431
0.724571 48.69 407.56498
0.724849 494.55 403.76183
0.725128 12.07 411.46626
0.725406 -117.78 422.98986
0.725685 183.98 431.75089
0.725964 670.93 443.27252
0.726242 568.03 448.12683
0.726521 -674.45 457.58458
0.726799 -108.55 458.90427
0.727078 -27.67 472.87771
0.727356 533.41 495.89917
0.727635 -303.72 498.1218
0.727914 752.81 511.79738
0.728192 548.24 515.60176
0.728471 761.21 540.47231
0.728749 -421.66 544.4536
0.729028 1300.16 560.85763
0.729306 144.58 586.1647
0.729585 644.6 599.00309
0.729864 -248.37 630.35827
0.730142 348.61 654.64441
0.730421 -154.76 654.64959
0.730699 1392.27 697.58523
0.730978 1740.94 744.47831
0.731256 1216.08 736.15966
0.731535 1302.16 789.75837
0.731814 814.86 880.56581
0.732092 1609.95 922.91407
0.732371 768.57 966.38449
0.732649 1148.76 1100.0721
0.732928 716.02 1239.6948
0.733206 3909.43 1582.4367

