# Q [1/Ã…] I(Q) [a.u.] dI(Q) [a.u.]
0.00223785 128369 25076.345
0.00251642 104971 19304.806
0.00279499 94345 13700.747
0.00307356 110415 10581.435
0.00335213 90503 7674.3479
0.0036307 78844 6440.1589
0.00390927 82569.5 5021.7006
0.00418784 82371.8 4273.4879
0.00446641 74418 3738.283
0.00474498 75577.4 3242.1464
0.00502355 75699.3 2752.9667
0.00530212 81037.8 2461.3532
0.00558069 82311.9 2138.6991
0.00585926 82059.1 1992.325
0.00613783 79696.7 1789.6164
0.0064164 77918.3 1546.8711
0.00669497 80332.7 1540.6336
0.00697355 79490.5 1332.356
0.00725212 78369.98 1297.957
0.00753069 79992.42 1176.3341
0.00780926 79733.74 1116.2689
0.00808783 79146.95 1091.5843
0.0083664 78296.99 1012.4642
0.00864497 79230.33 968.67507
0.00892354 78000.93 921.67149
0.00920211 78908.95 881.86389
0.00948068 76835.34 885.82894
0.00975925 79386.82 818.72426
0.0100378 77855.25 808.94304
0.0103164 78238.53 782.95628
0.010595 77786.62 755.40985
0.0108735 77341.7 748.45874
0.0111521 78654.56 721.65734
0.0114307 78456.98 728.88616
0.0117092 78391.37 687.64017
0.0119878 76348.12 670.83437
0.0122664 76461.82 671.13453
0.012545 75426.09 642.76395
0.0128235 77123.59 649.66838
0.0131021 76911.1 634.62627
0.0133807 76146.15 614.34974
0.0136592 76818.73 615.8766
0.0139378 76025.14 589.88514
0.0142164 76643.49 596.53857
0.0144949 74510.43 580.88412
0.0147735 76101.27 577.36487
0.0150521 75227.56 566.39704
0.0153307 75117.36 554.86294
0.0156092 74427.13 552.59816
0.0158878 74211.24 544.88126
0.0161664 75215.32 535.13781
0.0164449 75643.93 539.14452
0.0167235 74417.83 519.02473
0.0170021 74686.02 518.10609
0.0172806 74308.73 516.37383
0.0175592 74132 510.23657
0.0178378 74222.61 502.96923
0.0181164 74035.42 496.80248
0.0183949 74033.48 492.36946
0.0186735 74204.54 487.17897
0.0189521 74555.51 494.72339
0.0192306 73008.63 498.53552
0.0195092 73615.18 501.32775
0.0197878 73409.6 496.38942
0.0200664 72813.17 496.87943
0.0203449 73108.13 495.18652
0.0206235 73011.82 495.68232
0.0209021 72590.5 491.54964
0.0211806 71454.2 486.36247
0.0214592 70939.53 490.01006
0.0217378 72151.51 485.06933
0.0220163 72343.2 484.62016
0.0222949 71366.69 482.20352
0.0225735 71389.36 481.34172
0.0228521 70606.68 479.00695
0.0231306 70620.75 472.26297
0.0234092 69336.24 473.28676
0.0236878 70731.34 477.31378
0.0239663 70474.93 470.15892
0.0242449 69851.16 469.48165
0.0245235 69579.9 462.05298
0.024802 69746.07 467.35856
0.0250806 69203.94 464.35394
0.0253592 69002.89 453.35398
0.0256378 68289.9 449.32404
0.0259163 68349.85 434.53634
0.0261949 68840.81 437.34123
0.0264735 68079.97 426.63496
0.026752 67827.88 414.80435
0.0270306 67959.7 417.17222
0.0273092 67448.99 413.63512
0.0275877 67381.83 407.65402
0.0278663 67293.58 405.12222
0.0281449 67310.99 398.30989
0.0284235 67053.45 403.4338
0.028702 66638.33 392.84548
0.0289806 66351.96 388.96386
0.0292592 65747.27 388.47873
0.0295377 66019.12 383.59972
0.0298163 64850.26 377.98536
0.0300949 65850.65 378.11105
0.0303735 65228.89 373.74713
0.030652 65092.12 375.11534
0.0309306 64718.19 370.15597
0.0312092 64200.89 364.92791
0.0314877 63567.33 366.04216
0.0317663 63570.17 362.24775
0.0320449 63068.61 359.0805
0.0323234 63724.84 358.61663
0.032602 62703.25 351.28246
0.0328806 62917.49 350.70742
0.0331592 62905.97 350.5811
0.0334377 62849.81 348.57688
0.0337163 62216.96 350.64743
0.0339949 62011.09 349.63073
0.0342734 61337.13 357.00879
0.034552 61665.8 354.97266
0.0348306 61484 351.13188
0.0351091 61138.17 353.88808
0.0353877 60998.98 353.54823
0.0356663 60387.04 357.53874
0.0359449 59943.48 349.0514
0.0362234 60766.03 349.44198
0.036502 59454.31 351.53684
0.0367806 59816.87 349.1489
0.0370591 59298.67 353.45172
0.0373377 58677.64 345.55861
0.0376163 59291.2 346.76086
0.0378949 57893.65 345.91723
0.0381734 58385.35 341.53672
0.038452 58155.66 345.83807
0.0387306 57843.95 339.46011
0.0390091 57702.33 345.18209
0.0392877 56836.03 342.12129
0.0395663 56528.89 333.9457
0.0398448 56242.88 338.01013
0.0401234 56477.02 336.63387
0.040402 56259.06 339.83827
0.0406806 56412.48 336.40328
0.0409591 55550.82 328.73415
0.0412377 54972.54 332.34916
0.0415163 55025.03 329.58054
0.0417948 55285.6 330.67241
0.0420734 54396.97 329.24124
0.042352 54195.82 328.43498
0.0426305 53319.36 332.09226
0.0429091 53529.81 329.13578
0.0431877 53206.14 332.48931
0.0434663 53069.51 331.84931
0.0437448 52879.82 338.81947
0.0440234 52826.04 338.76533
0.044302 52328.03 333.79517
0.0445805 52508.68 338.56743
0.0448591 50999.84 333.71641
0.0451377 51567.05 342.50009
0.0454163 50841.74 337.93649
0.0456948 50351.68 336.25046
0.0459734 50322.2 336.73314
0.046252 50223.28 339.08259
0.0465305 50466.04 331.73109
0.0468091 49471.95 330.73986
0.0470877 49418.34 325.66121
0.0473662 48915.52 321.99219
0.0476448 48906.5 321.2344
0.0479234 48787.45 317.81889
0.048202 48964.1 316.37197
0.0484805 48184.87 314.6786
0.0487591 47950 308.90841
0.0490377 47805.09 310.6719
0.0493162 47538.12 305.45948
0.0495948 47004.99 306.7621
0.0498734 46889.33 302.61105
0.0501519 46290.99 301.31946
0.0504305 46609.03 305.33449
0.0507091 46086.85 300.77014
0.0509877 45783.13 301.70191
0.0512662 45565.55 299.33289
0.0515448 45484.78 297.93039
0.0518234 44796.99 298.99882
0.0521019 44532.23 294.91551
0.0523805 44921.42 298.45838
0.0526591 44043.92 296.17521
0.0529376 44326.23 293.6827
0.0532162 44250.33 296.41399
0.0534948 43088.88 291.55503
0.0537734 43101.92 291.47499
0.0540519 42715.19 288.33008
0.0543305 42293.96 288.38766
0.0546091 41811.44 286.62535
0.0548876 41909.15 281.02844
0.0551662 41490.13 282.3932
0.0554448 41520.66 283.02523
0.0557234 41011.47 278.00192
0.0560019 40745.99 279.94471
0.0562805 40744.29 275.5404
0.0565591 40326.87 275.43437
0.0568376 40027.58 274.22656
0.0571162 39364.13 271.68538
0.0573948 39455.58 271.92342
0.0576733 39139.88 269.47172
0.0579519 39103.14 271.188
0.0582305 39089.11 269.97737
0.0585091 38775.01 266.98737
0.0587876 38421.86 267.8075
0.0590662 37936.32 266.90484
0.0593448 37636.4 265.55328
0.0596233 37252.62 263.43435
0.0599019 37554.65 263.71338
0.0601805 37231.01 264.98548
0.060459 36545.8 261.31546
0.0607376 36355.99 258.24947
0.0610162 36150.59 259.57905
0.0612948 35601.5 258.75703
0.0615733 35511.17 258.33221
0.0618519 35333.3 255.28961
0.0621305 35249.82 255.30137
0.062409 34758.04 253.89959
0.0626876 34586.82 255.23324
0.0629662 34280.71 252.29993
0.0632448 34408.42 251.90135
0.0635233 33838.59 249.80629
0.0638019 33787.47 249.45373
0.0640805 33031.22 248.89207
0.064359 32911.33 246.11141
0.0646376 32725.72 247.66852
0.0649162 32704.73 246.83431
0.0651947 32049.69 245.47536
0.0654733 32589.56 244.41666
0.0657519 31910.64 242.15667
0.0660305 31638.73 244.05377
0.066309 31518.49 241.51588
0.0665876 30852.66 240.19748
0.0668662 31143.19 239.72023
0.0671447 30538.49 237.06401
0.0674233 30685.95 239.55933
0.0677019 30048.54 235.04546
0.0679804 30120.42 237.35752
0.068259 29662.05 236.10056
0.0685376 29490.04 233.91847
0.0688162 29682.89 233.53992
0.0690947 28960.24 230.12754
0.0693733 28781.71 231.87148
0.0696519 28596.5 231.02484
0.0699304 28405.84 230.48946
0.070209 27996.25 229.47078
0.0704876 27546.6 225.17158
0.0707662 27306.79 227.92043
0.0710447 27451.83 226.57327
0.0713233 27297.01 226.58736
0.0716019 26915.15 225.41514
0.0718804 26752.72 222.27354
0.072159 26807.39 224.98012
0.0724376 26443.9 222.31276
0.0727161 26093.34 221.1306
0.0729947 25567.42 220.91158
0.0732733 25892.27 221.16954
0.0735519 25725.59 218.90083
0.0738304 25146.88 218.35354
0.074109 24815.5 216.58814
0.0743876 24771.73 216.69658
0.0746661 24787.54 215.45286
0.0749447 24303.36 213.43974
0.0752233 24401.11 214.72368
0.0755018 23979.34 214.02972
0.0757804 23681.4 213.02061
0.076059 23622.69 214.00536
0.0763376 23778.07 212.27462
0.0766161 23299.92 210.29762
0.0768947 23237.4 210.26172
0.0771733 23087.09 210.08417
0.0774518 22690.69 207.9931
0.0777304 22405.02 206.70842
0.078009 22271.28 212.45343
0.0782875 22000.59 212.04
0.0785661 21698.41 212.7732
0.0788447 21372 214.33819
0.0791233 21288.45 215.18616
0.0794018 21192.9 218.32297
0.0796804 20421.03 213.99275
0.079959 20432.34 216.03028
0.0802375 20582.11 214.8904
0.0805161 20350.97 218.3266
0.0807947 20227.36 217.87476
0.0810733 19965.63 215.37849
0.0813518 19884.86 218.49028
0.0816304 19990.78 218.59174
0.081909 19571.35 216.80969
0.0821875 19537.24 217.43884
0.0824661 19404.05 218.29371
0.0827447 19094.58 218.60291
0.0830232 19042.63 218.34325
0.0833018 19022.87 216.48199
0.0835804 18504.27 217.41601
0.083859 18256.15 218.75242
0.0841375 18196.73 218.05368
0.0844161 17900.23 216.7884
0.0846947 17922.56 213.17483
0.0849732 17755.88 210.9323
0.0852518 17692.4 208.50691
0.0855304 17498.53 206.48463
0.0858089 16990.78 203.17456
0.0860875 17093.63 202.65901
0.0863661 16786.29 201.13733
0.0866447 17106.14 200.43231
0.0869232 16581.31 199.57005
0.0872018 16775.2 198.20702
0.0874804 16187.3 198.29429
0.0877589 15958.82 194.94618
0.0880375 16242.68 194.8196
0.0883161 15771.65 193.77925
0.0885947 15345.98 191.97565
0.0888732 15278.18 192.18028
0.0891518 15095.75 190.17843
0.0894304 14867.49 189.69226
0.0897089 15134.5 189.55061
0.0899875 15064.57 188.01233
0.0902661 14522.94 186.88699
0.0905446 14646.39 185.86005
0.0908232 14570.77 185.94281
0.0911018 14358.65 184.55356
0.0913804 13976.69 183.19066
0.0916589 14048.76 182.41384
0.0919375 13722.64 184.95709
0.0922161 13448.78 189.73859
0.0924946 13566.23 186.60938
0.0927732 13320.37 189.21397
0.0930518 12993.37 188.79507
0.0933303 12882.48 190.88062
0.0936089 12803.81 190.7425
0.0938875 12747.18 191.24617
0.0941661 12619.02 191.19874
0.0944446 12597.71 190.89377
0.0947232 12425.51 187.84866
0.0950018 12567.29 190.09343
0.0952803 12027.19 190.78397
0.0955589 11799.4 191.53518
0.0958375 12066.22 188.27614
0.0961161 11374.14 184.51099
0.0963946 11847.71 183.02821
0.0966732 11435.22 181.14216
0.0969518 11499.31 181.52854
0.0972303 11078.82 179.33402
0.0975089 11072.4 178.46172
0.0977875 11046.69 177.2404
0.098066 11113.21 177.22893
0.0983446 10557.73 176.69572
0.0986232 10526.64 174.7762
0.0989018 10637.74 176.80534
0.0991803 10292.83 175.14341
0.0994589 10357.54 173.3459
0.0997375 10328.41 172.91315
0.100016 10084.52 171.10974
0.100295 10055.87 170.67318
0.100573 9829.83 169.36865
0.100852 9853.09 169.97801
0.10113 9883.26 168.07308
0.101409 9759.81 167.876
0.101687 9458.64 166.63833
0.101966 9317.97 166.22507
0.102245 9450.82 166.4849
0.102523 9447.89 166.11461
0.102802 9227.54 165.6007
0.10308 9029.95 164.2217
0.103359 8762 163.69023
0.103637 8700.5 163.92203
0.103916 8857.43 162.65507
0.104195 8769.78 162.7472
0.104473 8564.51 161.69354
0.104752 8528.98 162.19208
0.10503 8415.2 161.91141
0.105309 8082.3 160.95805
0.105587 8267.57 161.42412
0.105866 8234.99 158.49327
0.106145 7682.67 159.0256
0.106423 8175.17 159.20317
0.106702 7703.94 157.41871
0.10698 7745.25 158.73498
0.107259 7545.67 156.27088
0.107537 7625.83 157.8138
0.107816 7460.19 157.19265
0.108095 7265.17 156.63969
0.108373 7347.78 156.12845
0.108652 7175.86 155.7644
0.10893 7088.27 155.94643
0.109209 6888.78 154.30952
0.109487 7028.8 154.33992
0.109766 6841.13 155.08626
0.110045 6817.12 154.15541
0.110323 6617.67 153.46279
0.110602 6482.73 152.87844
0.11088 6500.66 153.23174
0.111159 6476.48 153.41701
0.111437 6349.36 152.13801
0.111716 6185.43 151.50557
0.111995 6231.81 151.52739
0.112273 5936.05 150.77956
0.112552 5949.45 150.91602
0.11283 6075.62 149.84963
0.113109 5909.04 149.50195
0.113387 6070.02 149.94049
0.113666 6031.16 149.87618
0.113945 5793.66 149.07948
0.114223 5831.15 148.26055
0.114502 5681.54 148.76962
0.11478 5584.37 148.52774
0.115059 5494.21 146.95495
0.115337 5699.86 147.37054
0.115616 5336.73 147.11325
0.115895 5259.27 146.58931
0.116173 5285.71 146.92754
0.116452 5193.57 145.64988
0.11673 5112.35 145.91223
0.117009 5186.68 145.48425
0.117287 4936.79 144.95969
0.117566 4975.34 145.13011
0.117845 4761.48 144.46934
0.118123 4842.2 144.07324
0.118402 4608.7 142.68512
0.11868 4710.69 142.43516
0.118959 4702.73 142.66099
0.119237 4758.5 142.83425
0.119516 4401.03 142.58248
0.119795 4651.35 142.39794
0.120073 4457.38 141.38015
0.120352 4328.79 141.9446
0.12063 4078.67 140.89528
0.120909 4000.21 140.10995
0.121187 4461.46 140.63722
0.121466 3993.62 139.63754
0.121745 4002.04 140.30751
0.122023 3913.43 139.13259
0.122302 4001.09 138.59456
0.12258 4061.32 138.49538
0.122859 4018.69 138.09857
0.123137 4165.56 138.18686
0.123416 3712.46 136.7867
0.123695 3853.68 136.88358
0.123973 3743.63 136.97377
0.124252 3688.64 136.15107
0.12453 3476.15 136.39022
0.124809 3547.05 135.70045
0.125087 3661.52 136.15906
0.125366 3474.45 135.59139
0.125645 3517.41 134.73148
0.125923 3557.92 135.49242
0.126202 3683.47 134.58021
0.12648 3307.87 135.7035
0.126759 3394.31 135.02066
0.127037 3428.12 134.41656
0.127316 3125.66 133.79319
0.127594 3331.91 134.53957
0.127873 3131.09 134.45727
0.128152 3309.3 134.56763
0.12843 3063.78 133.41086
0.128709 3104.22 134.38306
0.128987 3169.9 133.08318
0.129266 3124.79 132.23268
0.129544 3054.64 132.87745
0.129823 2729.66 132.33518
0.130102 2745.06 132.66635
0.13038 3045.33 132.08757
0.130659 2916.9 131.33227
0.130937 2706.26 131.94903
0.131216 2720.87 131.13583
0.131494 2675.53 131.07406
0.131773 2550.84 131.20659
0.132052 2718.92 129.64839
0.13233 2558.33 130.87352
0.132609 2600.91 129.73914
0.132887 2633.56 129.95101
0.133166 2357.92 129.98324
0.133444 2285.25 129.28558
0.133723 2375.65 129.7401
0.134002 2601.33 129.01218
0.13428 2251.9 128.55965
0.134559 2406.04 129.19968
0.134837 2138.78 128.46104
0.135116 2407.18 128.80056
0.135394 2466.23 127.47745
0.135673 2078.04 127.96235
0.135952 2354.04 128.23933
0.13623 2111.22 126.94338
0.136509 2288.3 128.27006
0.136787 2068.27 126.95478
0.137066 2007.33 129.07606
0.137344 2099.28 130.86876
0.137623 2064.42 130.00976
0.137902 1777.8 132.63154
0.13818 2178.67 133.44003
0.138459 1985.56 132.47955
0.138737 2040.29 133.10253
0.139016 1868.31 132.57014
0.139294 1930.24 134.61449
0.139573 1929.67 134.63608
0.139852 1705.83 134.05113
0.14013 1556.34 135.24317
0.140409 1916.11 134.93095
0.140687 1546.42 136.00941
0.140966 2001.06 136.36116
0.141244 1589.52 136.09941
0.141523 1798.9 136.99244
0.141802 1869.81 136.52243
0.14208 1766.45 136.41056
0.142359 1539.07 136.23025
0.142637 1655.76 137.55604
0.142916 1589.95 138.01291
0.143194 1828.16 136.71941
0.143473 1864.64 137.91896
0.143752 1799.4 134.60641
0.14403 1625.91 134.61584
0.144309 1408.99 131.88058
0.144587 1612.07 130.76866
0.144866 1664.73 130.63979
0.145144 1703.23 129.48344
0.145423 1602.33 130.16235
0.145702 1542.22 128.26925
0.14598 1470.71 128.58042
0.146259 1603.8 127.86934
0.146537 1473.97 127.55766
0.146816 1315.52 127.19456
0.147094 1662.07 126.69351
0.147373 1349.41 126.54639
0.147652 1302.8 126.10201
0.14793 1249.08 125.93713
0.148209 1301.43 126.33912
0.148487 1249.59 125.51626
0.148766 1368.05 125.34264
0.149044 1221.98 124.95423
0.149323 1424.99 124.54869
0.149602 1222.37 124.41425
0.14988 1221.09 124.69122
0.150159 1444.71 124.03837
0.150437 1038.22 123.9033
0.150716 1226.63 124.74315
0.150994 1344.89 124.24103
0.151273 1110.16 123.71992
0.151552 1100.3 123.28162
0.15183 1131.63 123.03015
0.152109 1123.09 123.20167
0.152387 1126 122.19087
0.152666 1285.24 123.21162
0.152944 1119.57 122.56422
0.153223 1154.79 122.26935
0.153502 1237.84 122.23474
0.15378 982.63 121.2514
0.154059 1119.03 122.34995
0.154337 1334.47 121.69726
0.154616 1133.3 121.16566
0.154894 968.12 120.85255
0.155173 1032.73 120.731
0.155452 950.68 121.5687
0.15573 762.53 120.76072
0.156009 880.16 119.8633
0.156287 1083.97 120.24965
0.156566 1071.94 119.42426
0.156844 871.5 120.46927
0.157123 867.18 120.1361
0.157402 909.24 119.47694
0.15768 947.95 118.98407
0.157959 882.71 118.36426
0.158237 1081.85 118.99364
0.158516 995.67 119.2796
0.158794 1004.28 119.07108
0.159073 974.71 119.02275
0.159352 1023.65 118.50942
0.15963 1009.09 118.58602
0.159909 1017.35 118.56085
0.160187 895.23 117.33387
0.160466 925.92 117.72526
0.160744 787.6 118.37094
0.161023 967.78 116.95555
0.161302 867.56 117.34462
0.16158 772.47 117.32102
0.161859 1042.78 117.14002
0.162137 861.25 117.45154
0.162416 841.64 115.96299
0.162694 682.22 117.00798
0.162973 709.15 116.34671
0.163252 771.99 116.31145
0.16353 833.36 117.21614
0.163809 803.26 115.48147
0.164087 815.67 116.53459
0.164366 713.19 116.15461
0.164644 760.6 115.10118
0.164923 850.19 115.82197
0.165201 945.66 114.83749
0.16548 816.5 116.05324
0.165759 842.13 115.29747
0.166037 787.49 114.62302
0.166316 756.5 114.65534
0.166594 766.22 114.52999
0.166873 641.71 114.33017
0.167151 869.11 114.13502
0.16743 537.47 113.83646
0.167709 842.72 114.24538
0.167987 587.48 113.44384
0.168266 763.46 113.39148
0.168544 820.23 113.56229
0.168823 780.73 113.72701
0.169101 633.04 113.7503
0.16938 649.18 113.1059
0.169659 828.03 113.5204
0.169937 878.06 113.39493
0.170216 736.17 113.07781
0.170494 870.95 112.7809
0.170773 817.67 112.35221
0.171051 672.06 113.23818
0.17133 724.46 112.7599
0.171609 687.87 113.09344
0.171887 614.96 112.74394
0.172166 810.66 113.25426
0.172444 791.47 112.79303
0.172723 634.33 113.12493
0.173001 576.57 112.61334
0.17328 695.29 112.23431
0.173559 893.16 112.87301
0.173837 832.86 112.29032
0.174116 864.31 112.61969
0.174394 662.03 111.9914
0.174673 589.64 112.42382
0.174951 767.4 112.16384
0.17523 631.66 111.89418
0.175509 817.03 111.98618
0.175787 642.07 111.79354
0.176066 626.91 111.79836
0.176344 615.68 111.6244
0.176623 434.7 111.2161
0.176901 627.25 111.18917
0.17718 694.08 111.53151
0.177459 592.78 111.69299
0.177737 570.62 111.35872
0.178016 554.6 110.54517
0.178294 609.33 111.55068
0.178573 471.82 110.31959
0.178851 703.06 110.77714
0.17913 754.78 110.29588
0.179409 638.47 110.436
0.179687 734.87 111.31844
0.179966 778.37 110.34991
0.180244 528.5 110.5369
0.180523 740.28 110.19908
0.180801 731.2 110.36666
0.18108 682.13 110.8807
0.181359 669.15 110.13752
0.181637 802.02 110.16698
0.181916 476.66 109.96992
0.182194 526.36 110.13672
0.182473 604.85 111.33428
0.182751 690.39 110.03365
0.18303 847.65 111.04606
0.183309 572.38 110.59099
0.183587 481.37 110.67963
0.183866 639.76 111.0737
0.184144 920.01 110.82732
0.184423 573.61 111.23255
0.184701 562.54 110.86385
0.18498 524.89 110.9098
0.185259 598.3 110.95343
0.185537 751.77 110.85648
0.185816 674.51 110.77505
0.186094 674.61 110.84986
0.186373 703.7 110.24049
0.186651 683.29 110.86971
0.18693 743.25 110.09667
0.187209 563.55 109.82817
0.187487 488.02 110.07602
0.187766 618.98 110.07019
0.188044 596.83 109.8332
0.188323 558.15 109.83792
0.188601 430.08 109.59313
0.18888 830.57 109.40356
0.189159 512.2 108.88269
0.189437 446.31 109.28491
0.189716 761.35 109.05889
0.189994 734.1 108.64404
0.190273 650.94 109.07322
0.190551 647.59 108.65748
0.19083 661.28 108.17389
0.191109 689.54 109.079
0.191387 540.98 107.70628
0.191666 743.99 108.93258
0.191944 607.9 108.44363
0.192223 586.65 107.73168
0.192501 491.03 108.31406
0.19278 653.43 107.08478
0.193059 535.98 108.31937
0.193337 435.55 107.85467
0.193616 668.71 107.71769
0.193894 593.59 107.72605
0.194173 447.08 107.19453
0.194451 551.19 107.32572
0.19473 722.32 107.82163
0.195009 660.91 106.94299
0.195287 537.13 107.46697
0.195566 624.04 106.21943
0.195844 628.76 107.30145
0.196123 649.21 108.23565
0.196401 707.03 109.35293
0.19668 597.39 110.09916
0.196959 631.62 110.14033
0.197237 627.92 111.22829
0.197516 372.26 111.1754
0.197794 687.02 111.74866
0.198073 661.82 112.00203
0.198351 617.51 111.99755
0.19863 738.85 112.78523
0.198909 569.94 112.22291
0.199187 691.43 112.20769
0.199466 593.06 114.02695
0.199744 699.49 113.08605
0.200023 698.28 113.80859
0.200301 752.12 114.22723
0.20058 588.13 113.85581
0.200858 657.69 115.19981
0.201137 653.28 114.88763
0.201416 804.93 115.00402
0.201694 525.37 114.73581
0.201973 519.54 115.16831
0.202251 882.42 116.23584
0.20253 470.87 116.58593
0.202808 677.89 113.94715
0.203087 573.13 113.33033
0.203366 321.31 112.89845
0.203644 777.26 112.58716
0.203923 514.43 111.74806
0.204201 733.02 111.02447
0.20448 433.1 111.43792
0.204758 850.88 110.88379
0.205037 585.82 110.50786
0.205316 642.74 110.44087
0.205594 388.79 109.96364
0.205873 637.07 109.87637
0.206151 584.88 109.13347
0.20643 503.17 109.77348
0.206708 568.73 108.79815
0.206987 735.64 108.7855
0.207266 579.11 109.1177
0.207544 681.47 108.3529
0.207823 776.84 109.25523
0.208101 576.73 108.96458
0.20838 682.65 108.30831
0.208658 759.36 108.77359
0.208937 556.08 108.00643
0.209216 581.29 108.69943
0.209494 595.13 107.51098
0.209773 657.53 107.46342
0.210051 599.43 108.30836
0.21033 675.11 108.06272
0.210608 474.24 108.41634
0.210887 683.45 106.99753
0.211166 427.84 107.19281
0.211444 619.14 107.36445
0.211723 612.11 107.07067
0.212001 686.73 107.53983
0.21228 595.51 106.57228
0.212558 644.95 107.66069
0.212837 613.68 106.66607
0.213116 640.83 105.97783
0.213394 683.93 106.21944
0.213673 452.86 106.52132
0.213951 509.76 107.02371
0.21423 514.63 106.31989
0.214508 612.43 105.44563
0.214787 575.87 105.55611
0.215066 421.92 105.72096
0.215344 440.1 105.70396
0.215623 521.2 105.99985
0.215901 542.48 105.53397
0.21618 638.8 105.56081
0.216458 652.25 105.41229
0.216737 804.86 105.42289
0.217016 719.58 105.07587
0.217294 426.5 105.34636
0.217573 607.46 104.91923
0.217851 599.3 104.06618
0.21813 801.86 104.52503
0.218408 593.67 104.54226
0.218687 609.72 104.16556
0.218966 566.45 104.58518
0.219244 506.37 104.35584
0.219523 520.75 103.71973
0.219801 502.9 104.14608
0.22008 561.82 103.91192
0.220358 593.79 103.82514
0.220637 623.46 104.3345
0.220916 660.47 103.85867
0.221194 652.97 103.44429
0.221473 397.76 103.60868
0.221751 525.87 103.30578
0.22203 705.11 103.87361
0.222308 565.17 103.23539
0.222587 615.21 103.36184
0.222866 685.52 103.33266
0.223144 574.91 103.2146
0.223423 634.78 103.52753
0.223701 638.76 102.68522
0.22398 682.14 103.45872
0.224258 525.11 103.54477
0.224537 706.28 102.91324
0.224816 731.45 102.9756
0.225094 551.73 102.91237
0.225373 643.02 103.53876
0.225651 702.56 103.43612
0.22593 478.12 102.48016
0.226208 591.01 102.82921
0.226487 658.67 102.79702
0.226766 693.95 102.25695
0.227044 711.75 102.49366
0.227323 474.38 102.49682
0.227601 418.23 102.00609
0.22788 431.31 102.20495
0.228158 654.46 101.4971
0.228437 427.32 101.58269
0.228716 533.97 101.76223
0.228994 649.29 101.71437
0.229273 584.94 101.35401
0.229551 537.64 101.19575
0.22983 380.85 101.30506
0.230108 467.48 101.54842
0.230387 598.97 101.26241
0.230666 421.38 101.42231
0.230944 549.02 101.45047
0.231223 729.96 102.01227
0.231501 547.68 101.71416
0.23178 493.65 102.16809
0.232058 655.6 102.57936
0.232337 535.18 102.31551
0.232616 472.41 102.28207
0.232894 560.98 102.30391
0.233173 643.73 102.38181
0.233451 625.26 102.93926
0.23373 680.66 102.64145
0.234008 569.55 103.27651
0.234287 450.23 103.00606
0.234566 666.49 102.6889
0.234844 463.92 102.87652
0.235123 528.48 102.90818
0.235401 542.41 103.67221
0.23568 548.95 102.34155
0.235958 530.88 102.54724
0.236237 273.05 102.73137
0.236515 432.79 102.21603
0.236794 568.15 102.55701
0.237073 476.74 101.96052
0.237351 680.93 101.65044
0.23763 437.07 101.60465
0.237908 446.99 101.35504
0.238187 375.13 101.68857
0.238465 488.9 101.46501
0.238744 523.41 101.57417
0.239023 578.54 101.16994
0.239301 632.84 101.19663
0.23958 481.12 101.97775
0.239858 483.92 100.73996
0.240137 503.78 100.84418
0.240415 446.88 100.549
0.240694 459.46 100.45149
0.240973 556.74 100.88838
0.241251 439.91 100.56594
0.24153 617.7 99.911856
0.241808 224.95 99.888047
0.242087 631.3 100.35898
0.242365 499.53 100.03267
0.242644 585.58 99.833059
0.242923 381.33 99.749433
0.243201 257.94 100.30957
0.24348 239.58 99.695396
0.243758 492.97 99.219245
0.244037 364.85 99.145359
0.244315 473.61 99.081733
0.244594 514.54 99.066057
0.244873 427.93 98.596468
0.245151 380.27 98.505996
0.24543 351.72 98.716402
0.245708 343.92 98.267176
0.245987 555.47 98.448716
0.246265 621.01 98.728613
0.246544 443.2 98.218883
0.246823 649.22 98.63364
0.247101 662.34 98.120381
0.24738 489.82 98.767883
0.247658 502.74 97.957407
0.247937 446.43 98.316271
0.248215 516.17 99.108515
0.248494 623.03 98.395637
0.248773 513.69 98.103103
0.249051 518.14 98.288106
0.24933 389.14 98.346313
0.249608 338.7 98.148025
0.249887 334.14 97.636619
0.250165 408.35 98.161473
0.250444 372.53 97.966895
0.250723 538.39 98.038955
0.251001 561.83 98.150843
0.25128 355.15 97.872007
0.251558 561.59 97.951833
0.251837 395.01 97.638393
0.252115 451.06 97.766226
0.252394 540.8 98.084319
0.252673 387.65 97.411299
0.252951 584.26 97.298491
0.25323 596.02 97.491287
0.253508 258.34 96.80214
0.253787 358.11 97.655232
0.254065 527.35 97.356802
0.254344 382.14 97.070478
0.254623 351.38 97.265649
0.254901 396.38 97.233957
0.25518 242.53 98.539295
0.255458 367.43 99.046456
0.255737 573.67 99.962073
0.256015 394.68 100.9666
0.256294 274.8 101.18858
0.256573 379.25 101.39859
0.256851 402.04 101.05357
0.25713 344.24 102.03006
0.257408 394.78 102.30193
0.257687 466.38 102.91389
0.257965 309.47 102.59439
0.258244 211.32 103.58416
0.258523 342.23 103.98316
0.258801 392.76 103.19536
0.25908 440.49 104.0411
0.259358 405.58 103.48971
0.259637 279.87 104.6245
0.259915 458.05 104.3561
0.260194 589.4 104.98847
0.260473 310.82 104.80337
0.260751 473.94 104.55631
0.26103 308.36 105.9819
0.261308 546.74 105.87901
0.261587 262.68 105.77621
0.261865 382.26 104.17973
0.262144 281.79 103.07622
0.262423 490.53 102.83426
0.262701 607.14 101.96317
0.26298 389.32 102.16472
0.263258 573.53 101.5986
0.263537 582.37 100.89318
0.263815 339.95 100.92619
0.264094 428.76 100.26212
0.264373 449.24 101.29145
0.264651 455.49 99.904335
0.26493 346.04 99.878735
0.265208 450.26 100.43004
0.265487 208.8 99.531727
0.265765 500.14 100.40191
0.266044 216.8 99.200195
0.266323 216.46 99.873802
0.266601 283.82 98.960942
0.26688 336.96 98.970646
0.267158 468.8 99.787278
0.267437 329.28 98.721817
0.267715 454.53 98.900295
0.267994 377.55 98.555569
0.268273 413.31 97.943125
0.268551 251.26 98.911683
0.26883 315.42 97.450225
0.269108 279.45 98.028209
0.269387 491.51 97.403127
0.269665 296.84 96.633801
0.269944 523.99 97.288432
0.270223 380.57 96.519355
0.270501 520.68 96.862492
0.27078 397.13 97.232457
0.271058 234.71 97.022112
0.271337 420.22 96.518496
0.271615 288.23 96.389022
0.271894 189.91 96.203733
0.272172 456.44 96.764968
0.272451 374.64 96.23169
0.27273 252.25 96.295276
0.273008 431.68 96.551171
0.273287 497.96 96.025542
0.273565 374.02 96.566981
0.273844 414.21 95.90911
0.274122 261.53 96.425161
0.274401 488.22 96.358349
0.27468 456.17 95.948793
0.274958 255.11 96.433628
0.275237 461.31 95.890695
0.275515 249.7 96.048738
0.275794 470.19 95.795525
0.276072 546.54 96.034177
0.276351 392.97 95.865036
0.27663 346.05 94.926211
0.276908 111.18 95.550037
0.277187 370.36 95.385406
0.277465 319.4 95.249183
0.277744 420.37 95.575284
0.278022 394.02 95.41054
0.278301 387.15 95.11239
0.27858 393.96 95.798364
0.278858 184.72 95.049533
0.279137 400.87 95.577809
0.279415 236.48 94.855239
0.279694 342.77 95.447462
0.279972 388.61 95.381104
0.280251 353.45 94.774359
0.28053 343.63 94.922777
0.280808 381.8 95.269735
0.281087 141.47 94.714523
0.281365 487.56 95.143945
0.281644 396.07 94.723261
0.281922 367.65 94.584311
0.282201 339.71 94.850609
0.28248 254.41 94.484039
0.282758 352.72 94.051608
0.283037 188.38 94.343966
0.283315 130.48 94.875561
0.283594 384.89 94.220847
0.283872 226.49 94.220144
0.284151 343.86 94.521637
0.28443 191.58 94.192998
0.284708 325.61 93.849602
0.284987 377.35 94.186459
0.285265 270.6 94.235278
0.285544 358.9 93.758849
0.285822 257.18 94.672427
0.286101 301.73 93.504137
0.28638 285.82 93.885218
0.286658 145.38 93.712451
0.286937 305.14 93.916191
0.287215 244.07 93.870218
0.287494 173.96 93.764608
0.287772 261.74 93.527749
0.288051 327.1 93.621606
0.28833 353.08 93.344682
0.288608 286.27 93.310266
0.288887 302.13 93.683683
0.289165 373.92 93.589532
0.289444 105.43 93.237286
0.289722 325 92.978512
0.290001 292.42 93.276348
0.29028 324.65 93.014004
0.290558 285.84 93.92466
0.290837 449.77 92.699405
0.291115 302.38 92.87356
0.291394 282.31 93.31937
0.291672 283.66 93.024503
0.291951 259.76 93.159274
0.29223 265.14 92.260386
0.292508 233.35 92.824362
0.292787 269.7 92.837917
0.293065 270.72 92.909304
0.293344 296.81 93.074426
0.293622 428.2 92.013753
0.293901 212.43 93.04023
0.29418 211.28 92.524943
0.294458 425.97 92.063377
0.294737 303.99 92.295926
0.295015 339.95 92.688536
0.295294 415.55 92.560821
0.295572 383.3 92.422041
0.295851 256.1 91.955332
0.29613 229.55 92.301347
0.296408 357.03 91.988658
0.296687 210.41 92.141784
0.296965 117.35 92.136214
0.297244 203.93 91.863
0.297522 385.66 92.515219
0.297801 413.98 92.192321
0.29808 122.95 92.069568
0.298358 86.68 92.101653
0.298637 199.53 92.205806
0.298915 370.02 92.099135
0.299194 306.91 91.657864
0.299472 184.08 91.29534
0.299751 330.82 92.411244
0.30003 236.13 91.798186
0.300308 229.13 91.876439
0.300587 113.91 91.605168
0.300865 382.29 91.430285
0.301144 207.46 92.069309
0.301422 246.59 91.451343
0.301701 350.96 91.142952
0.30198 260.71 91.935364
0.302258 282.58 91.063038
0.302537 211.9 91.248169
0.302815 366.32 90.661515
0.303094 194.78 90.842305
0.303372 284.67 91.286591
0.303651 155.79 90.66009
0.30393 237.96 90.971702
0.304208 141.03 90.815866
0.304487 323.75 90.368191
0.304765 265.08 91.183479
0.305044 164.99 90.165583
0.305322 149.24 90.429703
0.305601 255.76 90.6626
0.30588 107.41 90.030059
0.306158 187.96 90.899897
0.306437 244.32 90.444513
0.306715 293.41 91.116674
0.306994 310.88 90.534399
0.307272 226.55 90.140855
0.307551 140.45 90.584072
0.30783 321.91 90.551286
0.308108 216.15 90.685443
0.308387 298.16 90.420683
0.308665 266.34 90.490103
0.308944 139.53 90.656351
0.309222 307.51 90.579249
0.309501 295.89 90.643753
0.309779 200.44 90.346973
0.310058 263.58 90.475775
0.310337 281.91 90.530414
0.310615 71.34 90.472501
0.310894 359.44 90.583611
0.311172 444.57 90.542429
0.311451 347.61 90.523558
0.311729 358.34 89.998992
0.312008 274.05 90.029635
0.312287 334.83 90.002556
0.312565 325.78 89.751359
0.312844 71.73 89.723132
0.313122 161.62 89.544099
0.313401 281.24 90.3772
0.313679 173.63 89.859032
0.313958 183.58 89.994716
0.314237 270.46 90.443161
0.314515 131.06 91.759587
0.314794 185.29 92.706808
0.315072 110.84 93.059421
0.315351 153.77 92.754466
0.315629 109.34 93.357809
0.315908 166.94 93.926134
0.316187 221.46 94.315646
0.316465 300.27 94.331812
0.316744 306.87 95.414056
0.317022 152.91 95.21543
0.317301 181.36 95.072625
0.317579 186.29 95.028056
0.317858 276.43 95.773366
0.318137 73.09 96.153559
0.318415 70.1 95.732077
0.318694 320.31 96.980868
0.318972 145.93 96.42667
0.319251 278.82 96.808688
0.319529 392.53 97.616934
0.319808 115.74 97.103392
0.320087 310.03 98.219484
0.320365 265.79 97.229958
0.320644 154.17 97.988407
0.320922 245.24 97.441497
0.321201 300.5 95.496892
0.321479 350.58 95.942838
0.321758 104.57 94.78831
0.322037 128.63 94.295488
0.322315 265.81 94.378129
0.322594 294.85 93.529637
0.322872 293.38 94.010118
0.323151 241.5 93.417328
0.323429 200.09 93.207619
0.323708 204.76 93.732141
0.323987 94.14 92.570737
0.324265 193.41 92.903635
0.324544 60.73 93.706873
0.324822 435.43 92.972809
0.325101 233.99 92.500671
0.325379 275.47 92.184513
0.325658 217.97 92.052851
0.325937 49.41 92.357856
0.326215 131.58 92.21258
0.326494 180.91 92.111687
0.326772 174.52 92.354305
0.327051 126.81 91.882085
0.327329 360.38 92.1212
0.327608 103.07 91.297413
0.327887 215.45 91.733134
0.328165 324.24 91.056091
0.328444 136.65 90.842407
0.328722 248.79 91.488164
0.329001 193 90.836153
0.329279 375.32 90.926554
0.329558 125.47 91.379575
0.329837 209.63 90.218828
0.330115 319.82 90.907089
0.330394 192.57 90.438077
0.330672 124.67 90.460283
0.330951 168.38 90.916059
0.331229 314.43 89.953044
0.331508 164.19 90.68355
0.331787 303.01 90.282173
0.332065 58.03 90.348442
0.332344 255.91 90.427323
0.332622 197.77 89.878809
0.332901 259.19 90.77381
0.333179 186.33 89.864146
0.333458 204.29 90.101147
0.333737 226.01 90.213529
0.334015 160.01 90.092923
0.334294 215.74 90.617843
0.334572 131.11 90.108651
0.334851 234.36 89.508299
0.335129 287.85 90.376768
0.335408 185.25 89.745349
0.335687 37.88 90.309543
0.335965 189.64 89.865334
0.336244 321.48 89.618596
0.336522 223.66 90.110759
0.336801 57.39 89.303168
0.337079 335.42 89.622415
0.337358 212.17 89.303907
0.337637 222.01 89.482428
0.337915 321.85 89.712437
0.338194 233.9 89.162178
0.338472 176.67 89.329779
0.338751 288.09 89.268477
0.339029 113.33 88.905348
0.339308 241.95 89.295966
0.339587 216.45 88.932951
0.339865 206.51 88.957623
0.340144 273.91 88.708698
0.340422 276.53 88.958942
0.340701 134.62 88.81804
0.340979 82.69 88.907233
0.341258 30.65 88.662108
0.341537 167.17 88.671673
0.341815 316.25 88.710465
0.342094 125.1 88.640131
0.342372 240.42 88.902037
0.342651 339.35 88.702873
0.342929 170.16 88.071394
0.343208 295.35 88.163683
0.343487 63.99 88.371567
0.343765 237.01 88.420332
0.344044 270.66 87.937611
0.344322 167.64 88.155916
0.344601 171.94 88.050672
0.344879 193.23 87.959806
0.345158 229.14 87.833379
0.345436 241.44 87.604293
0.345715 142.21 88.101305
0.345994 111.31 87.561488
0.346272 216.32 87.728883
0.346551 346.49 87.518939
0.346829 197.46 87.505358
0.347108 233.56 87.818595
0.347386 274.78 87.325425
0.347665 65.91 87.765499
0.347944 278.26 87.78194
0.348222 333.16 87.511431
0.348501 129.15 87.634838
0.348779 182.83 87.346063
0.349058 117.62 87.52359
0.349336 171.29 87.506753
0.349615 430.73 86.850331
0.349894 266.33 87.628846
0.350172 323.68 87.315581
0.350451 149.41 87.85252
0.350729 262.56 87.673238
0.351008 366.36 86.943812
0.351286 293.93 87.619981
0.351565 232.68 86.669836
0.351844 196.46 87.524097
0.352122 108.44 87.209619
0.352401 211.81 87.02988
0.352679 97.59 87.411446
0.352958 303.53 87.303095
0.353236 214.38 87.335173
0.353515 206.83 87.319751
0.353794 208.12 87.217506
0.354072 91.16 87.477133
0.354351 175.54 87.231397
0.354629 346.59 87.119613
0.354908 182.52 87.419143
0.355186 196.88 87.177678
0.355465 246.64 87.552807
0.355744 76.42 87.355128
0.356022 199.03 87.283846
0.356301 333.01 87.774222
0.356579 83.03 86.992069
0.356858 8.02 87.518841
0.357136 326.68 87.27267
0.357415 211.63 86.757371
0.357694 327.52 87.547447
0.357972 235.42 87.469888
0.358251 211.94 87.613514
0.358529 305.46 87.212487
0.358808 256.01 87.290275
0.359086 238.2 87.298386
0.359365 270.9 86.899239
0.359644 327.37 87.298273
0.359922 252.77 87.128844
0.360201 193.97 87.10265
0.360479 215.65 87.263753
0.360758 263.34 87.196234
0.361036 203.82 87.053292
0.361315 106.16 87.187745
0.361594 290.79 86.974272
0.361872 108.09 87.409051
0.362151 309.68 87.2006
0.362429 322.9 86.975641
0.362708 213.72 87.197172
0.362986 134.75 86.969215
0.363265 125.54 87.012197
0.363544 143.19 86.747646
0.363822 295.72 87.016741
0.364101 163.78 86.833001
0.364379 195.34 86.31209
0.364658 316.62 87.627968
0.364936 255.09 86.799742
0.365215 167.5 86.634891
0.365494 115.77 86.885774
0.365772 203.78 86.890139
0.366051 291.66 86.950549
0.366329 156.79 86.734695
0.366608 196.01 86.991761
0.366886 227.87 86.816557
0.367165 268.97 86.948809
0.367444 214.11 86.810836
0.367722 276.66 86.770524
0.368001 199.73 86.751579
0.368279 210.02 87.331897
0.368558 277.65 86.958382
0.368836 281.82 86.835352
0.369115 156.59 86.792544
0.369394 178.01 87.161621
0.369672 218.74 86.859098
0.369951 188.56 86.782792
0.370229 377.36 87.095802
0.370508 42.68 86.787647
0.370786 125.22 87.06573
0.371065 273.78 86.972048
0.371344 66 86.872747
0.371622 238.84 87.303091
0.371901 368.43 87.156464
0.372179 276.22 86.662546
0.372458 334.73 87.226919
0.372736 302.68 87.472682
0.373015 30.47 86.873799
0.373294 297.13 88.260747
0.373572 109.73 89.208553
0.373851 208.15 89.46375
0.374129 205.87 89.884963
0.374408 32.89 90.438178
0.374686 214.49 90.942973
0.374965 256.33 91.188766
0.375244 132.83 92.155626
0.375522 293.09 91.629967
0.375801 117 91.588143
0.376079 222.97 92.030156
0.376358 150.85 92.148818
0.376636 199.25 93.096181
0.376915 353.8 92.418263
0.377194 261.8 93.064236
0.377472 174.56 93.893134
0.377751 209.23 93.353978
0.378029 196.17 94.699291
0.378308 200.03 93.452677
0.378586 -24.47 94.789215
0.378865 299.54 95.014315
0.379144 227.15 94.446158
0.379422 305.06 95.070943
0.379701 296.24 95.241078
0.379979 376.64 94.208094
0.380258 238.38 93.51419
0.380536 230.84 92.302861
0.380815 170.17 91.714332
0.381093 327.29 91.874733
0.381372 202.5 92.11922
0.381651 193.73 91.58843
0.381929 206.7 90.83561
0.382208 309.62 90.678376
0.382486 112.79 91.206728
0.382765 216.35 90.756382
0.383043 351.88 91.06598
0.383322 140.14 90.925825
0.383601 313.39 90.626996
0.383879 320.91 90.594779
0.384158 161.56 90.620136
0.384436 234.27 90.119999
0.384715 104.91 90.875544
0.384993 192.21 89.761115
0.385272 403.12 89.861792
0.385551 167.38 89.367392
0.385829 191.6 89.190144
0.386108 169.49 89.990154
0.386386 323.49 88.916458
0.386665 118.75 89.916917
0.386943 270.24 89.075611
0.387222 384.75 89.574276
0.387501 283.76 89.185259
0.387779 190.37 89.266721
0.388058 215.28 89.727217
0.388336 339.04 89.088222
0.388615 243.68 89.150465
0.388893 322.38 89.372141
0.389172 114.82 88.42342
0.389451 166.13 89.748022
0.389729 285.22 88.532614
0.390008 142.42 89.070287
0.390286 294.37 88.517075
0.390565 226.34 88.355189
0.390843 187.77 88.911281
0.391122 341.2 88.274991
0.391401 64.79 88.81095
0.391679 335.97 88.843636
0.391958 162.72 87.773685
0.392236 216.32 88.423874
0.392515 186.67 88.240821
0.392793 241.26 88.607497
0.393072 247.43 88.266715
0.393351 218.11 87.599552
0.393629 220.41 88.552745
0.393908 133.01 87.713017
0.394186 333.01 88.865921
0.394465 122.33 88.112069
0.394743 285.93 88.00194
0.395022 231.41 88.260167
0.395301 201.87 88.094632
0.395579 140.07 88.468699
0.395858 273.63 88.244518
0.396136 76.5 89.039012
0.396415 168.02 89.092687
0.396693 88.17 88.238975
0.396972 364.43 88.460533
0.397251 48.63 88.374653
0.397529 117.17 88.783818
0.397808 198.45 88.940722
0.398086 181.31 88.484426
0.398365 205.72 88.55334
0.398643 246.94 88.417622
0.398922 383.94 88.84767
0.399201 180.77 88.986873
0.399479 197.16 88.86576
0.399758 283.41 89.135202
0.400036 322.08 88.881185
0.400315 361.97 88.778582
0.400593 242.64 88.684498
0.400872 148.67 88.673494
0.401151 273.65 88.474939
0.401429 84.99 88.900014
0.401708 143.6 88.578943
0.401986 316 88.959114
0.402265 181.56 88.773368
0.402543 189.25 88.668915
0.402822 226.37 89.048485
0.403101 321.87 88.572081
0.403379 318.14 88.531697
0.403658 204.54 89.090219
0.403936 253.99 88.485364
0.404215 247.55 89.2052
0.404493 310.96 88.879641
0.404772 296.13 88.799083
0.405051 124.81 89.106684
0.405329 299.4 88.547482
0.405608 152.15 89.187983
0.405886 352.64 88.903683
0.406165 300.13 89.061189
0.406443 244.67 88.87993
0.406722 231.98 88.919423
0.407001 342.58 89.355853
0.407279 190.05 89.277853
0.407558 289.87 89.124371
0.407836 16.98 89.109045
0.408115 263.75 88.593092
0.408393 103.17 89.252957
0.408672 263.02 88.555575
0.408951 397.49 89.414604
0.409229 78.09 88.933714
0.409508 416.97 89.092371
0.409786 321.75 89.088497
0.410065 240.54 88.427802
0.410343 220.77 89.000366
0.410622 127.11 88.682192
0.410901 331.23 88.894291
0.411179 252.71 88.995
0.411458 334.91 88.42237
0.411736 220.92 88.239942
0.412015 350.12 88.763637
0.412293 308.47 88.527769
0.412572 236.11 88.554598
0.412851 235.13 88.473271
0.413129 57.51 88.658048
0.413408 262.98 89.087269
0.413686 218.23 89.094557
0.413965 91.81 88.458932
0.414243 294.27 89.16874
0.414522 203.04 88.186509
0.414801 183.27 88.776572
0.415079 221.26 88.716396
0.415358 88.83 88.537949
0.415636 383.67 89.091875
0.415915 363.6 88.467588
0.416193 298.44 88.502943
0.416472 350.31 88.483672
0.416751 402.56 88.264777
0.417029 194.09 88.736903
0.417308 258.5 88.264409
0.417586 224.21 88.26646
0.417865 145.86 88.591302
0.418143 237.51 87.982289
0.418422 175.33 88.700586
0.4187 166.24 88.296455
0.418979 119.42 88.277323
0.419258 288.62 88.429904
0.419536 166.19 88.351247
0.419815 164.78 88.432543
0.420093 221.26 88.195906
0.420372 229.04 88.273026
0.42065 34 88.341141
0.420929 199.89 87.918149
0.421208 13.86 88.594969
0.421486 276.13 88.60154
0.421765 196.5 88.410595
0.422043 175.61 88.45925
0.422322 235.35 88.738262
0.4226 156.66 88.84239
0.422879 122.14 88.020175
0.423158 285.21 89.054093
0.423436 239.5 88.55575
0.423715 358.16 88.706826
0.423993 259.35 88.747666
0.424272 196.02 88.768969
0.42455 197.32 88.962894
0.424829 267.02 88.676948
0.425108 362.56 88.641163
0.425386 273.42 89.093316
0.425665 348.89 89.00865
0.425943 234.56 88.589131
0.426222 341.1 88.833811
0.4265 271.7 88.634694
0.426779 49.67 88.99064
0.427058 349.05 88.922314
0.427336 373.8 88.562743
0.427615 107.45 89.109259
0.427893 336.1 88.840756
0.428172 201.7 89.254206
0.42845 337.35 89.430605
0.428729 308.85 88.506105
0.429008 200.16 89.10469
0.429286 351.41 88.776059
0.429565 235.23 89.244621
0.429843 90.25 88.746374
0.430122 326.48 88.917513
0.4304 187.38 89.190425
0.430679 287.87 89.117829
0.430958 103.09 89.0731
0.431236 362 89.135389
0.431515 356.35 88.782857
0.431793 383.68 89.389751
0.432072 405.98 88.790254
0.43235 171.31 90.294621
0.432629 268.85 91.033799
0.432908 213.8 92.116242
0.433186 240.92 93.381529
0.433465 418.93 92.797083
0.433743 376.23 94.155406
0.434022 270.19 94.041005
0.4343 317.61 94.886244
0.434579 221.06 95.615658
0.434858 437.22 95.014763
0.435136 317.71 95.982777
0.435415 173.28 96.11915
0.435693 300.36 96.184644
0.435972 232.62 97.732013
0.43625 393.8 96.866012
0.436529 148.11 97.810776
0.436808 189.2 98.347857
0.437086 336.48 97.650964
0.437365 150.05 99.241587
0.437643 205.36 98.305503
0.437922 363.2 99.371011
0.4382 223.59 99.649649
0.438479 254.55 99.800924
0.438758 306.01 99.981444
0.439036 252.46 98.283215
0.439315 153.34 97.172553
0.439593 84.6 96.211127
0.439872 161.12 96.493536
0.44015 179.51 95.603327
0.440429 104.66 94.808139
0.440708 165.62 94.877443
0.440986 244.3 94.839136
0.441265 238.59 95.148075
0.441543 228.33 94.982425
0.441822 453.48 94.972803
0.4421 262.77 94.271364
0.442379 307.51 94.105636
0.442658 309.07 93.766158
0.442936 228.63 93.94269
0.443215 8.25 93.69345
0.443493 206.03 93.382049
0.443772 282.65 93.16687
0.44405 196.43 93.203052
0.444329 229.44 93.885374
0.444608 222.57 93.482661
0.444886 181.78 93.885574
0.445165 311.94 93.495225
0.445443 308.74 93.797992
0.445722 100.58 93.336545
0.446 142.57 93.402386
0.446279 254.79 93.179009
0.446558 171.01 93.218016
0.446836 132.48 93.558909
0.447115 318.89 93.115922
0.447393 180 93.385315
0.447672 273.37 92.796675
0.44795 286.93 92.385362
0.448229 163.33 92.758327
0.448508 147.4 92.001798
0.448786 215.62 92.795845
0.449065 127.23 92.367564
0.449343 180.04 92.285088
0.449622 72.22 92.545169
0.4499 52.63 91.883919
0.450179 49.23 92.191667
0.450458 122.15 91.919781
0.450736 281.7 92.48893
0.451015 190.16 91.498429
0.451293 179.66 91.71951
0.451572 231.48 92.334893
0.45185 227.83 91.951876
0.452129 62.68 91.286089
0.452408 323.6 91.756666
0.452686 265.25 91.957673
0.452965 370.55 91.452539
0.453243 222.04 92.082073
0.453522 60.98 91.76255
0.4538 272.59 91.81032
0.454079 203.16 91.834513
0.454357 84.13 91.037023
0.454636 326.05 91.690896
0.454915 174.08 91.880426
0.455193 167.21 90.846944
0.455472 184.88 91.606582
0.45575 254.6 91.715649
0.456029 175.54 91.956428
0.456307 252.04 91.897247
0.456586 205.44 91.279248
0.456865 344.46 91.969814
0.457143 295.64 91.117278
0.457422 287.64 91.861606
0.4577 279.48 91.233342
0.457979 373.27 91.852751
0.458257 242.7 92.017189
0.458536 158.26 91.511386
0.458815 246.24 91.738224
0.459093 354.36 91.325989
0.459372 221.11 91.723582
0.45965 222.22 91.423234
0.459929 262.43 91.095339
0.460207 70.36 91.865706
0.460486 276.43 91.522417
0.460765 155.56 91.735005
0.461043 261.61 91.590784
0.461322 350.46 91.173748
0.4616 187.38 91.619209
0.461879 242.72 91.206025
0.462157 214.52 91.998242
0.462436 180.83 91.353823
0.462715 188.11 91.322166
0.462993 247.09 91.85755
0.463272 212.52 91.226365
0.46355 276.19 91.514141
0.463829 135.15 91.396165
0.464107 8.31 91.652154
0.464386 382.07 91.456371
0.464665 230.54 91.059093
0.464943 32.23 92.183497
0.465222 379.8 91.136821
0.4655 152.65 91.49567
0.465779 295.09 92.010964
0.466057 292.94 91.463569
0.466336 274.97 91.75978
0.466615 282.43 91.108904
0.466893 282.19 92.175706
0.467172 210.27 91.203345
0.46745 266.86 91.344108
0.467729 251.25 92.054092
0.468007 194.57 91.16012
0.468286 87.84 91.463235
0.468565 32.82 91.241233
0.468843 129.45 91.118615
0.469122 165.78 91.206474
0.4694 271.82 91.177175
0.469679 220.95 91.866701
0.469957 299.53 90.910499
0.470236 515.01 91.552232
0.470515 128.72 91.37085
0.470793 108.13 91.224544
0.471072 358.6 91.517395
0.47135 274.25 90.965523
0.471629 238.98 91.349485
0.471907 210.85 91.06873
0.472186 79.65 91.568134
0.472465 352.12 90.993424
0.472743 390.32 91.52166
0.473022 249.06 91.352321
0.4733 248.26 91.176785
0.473579 269.58 91.300157
0.473857 73.79 91.306285
0.474136 280.31 91.210842
0.474415 57.37 91.680768
0.474693 159.91 90.749947
0.474972 209.46 91.771083
0.47525 252.11 91.384506
0.475529 426.85 91.658091
0.475807 196.75 92.128476
0.476086 301.74 91.135056
0.476365 299.86 92.227246
0.476643 237.86 91.030303
0.476922 288.44 91.845463
0.4772 224.06 92.010784
0.477479 234.14 91.55751
0.477757 320.25 91.830575
0.478036 344.78 91.268488
0.478315 253.08 91.757046
0.478593 371.85 91.276662
0.478872 473.54 91.627644
0.47915 125.54 92.210499
0.479429 114 90.890301
0.479707 265.6 92.07718
0.479986 148.32 91.085554
0.480265 225.16 91.665211
0.480543 282.66 91.40979
0.480822 238.27 91.640425
0.4811 112.26 92.068739
0.481379 193.92 91.099232
0.481657 352.89 91.718683
0.481936 176.27 91.487759
0.482215 345.38 91.712153
0.482493 164.93 91.730197
0.482772 368.4 91.812706
0.48305 250.31 91.976737
0.483329 280.83 91.162187
0.483607 153.9 91.323656
0.483886 265.44 91.67998
0.484165 370.2 91.350591
0.484443 335.43 91.616156
0.484722 287 91.198784
0.485 274.45 91.292605
0.485279 322.52 91.269389
0.485557 277.17 91.193388
0.485836 103.24 91.994858
0.486115 253.28 90.900844
0.486393 218.11 91.129335
0.486672 163.06 91.224615
0.48695 369 91.231656
0.487229 300.39 91.523619
0.487507 346.84 90.858434
0.487786 192.45 91.678827
0.488065 381.73 91.24788
0.488343 224.66 91.603393
0.488622 313.87 91.406311
0.4889 118.38 91.029161
0.489179 342.58 91.731201
0.489457 244.27 90.944994
0.489736 125.88 91.712508
0.490014 236.08 90.869867
0.490293 255.98 91.285832
0.490572 289.93 91.405916
0.49085 176.7 90.337119
0.491129 251.79 90.882641
0.491407 178.7 92.203276
0.491686 252.29 93.844192
0.491964 429.32 94.420009
0.492243 256.68 94.371908
0.492522 315.42 95.94289
0.4928 369.25 95.77115
0.493079 243.09 96.761973
0.493357 70.77 96.724159
0.493636 243.91 96.796794
0.493914 354.95 98.410924
0.494193 226.9 97.377666
0.494472 85.81 98.176203
0.49475 279.37 98.701333
0.495029 236.27 99.231695
0.495307 194.09 100.41651
0.495586 133.61 99.137028
0.495864 471.32 100.47889
0.496143 277.26 100.61414
0.496422 309.72 101.27619
0.4967 361.29 102.25653
0.496979 109.93 101.78385
0.497257 216.82 102.47697
0.497536 158.44 102.05096
0.497814 131.66 102.92828
0.498093 59.53 101.30708
0.498372 329.5 99.714644
0.49865 356.13 99.719714
0.498929 480.38 98.676294
0.499207 142.57 98.679051
0.499486 290.83 97.36344
0.499764 200.13 98.027083
0.500043 255.83 97.629531
0.500322 243.09 97.303025
0.5006 194.47 96.914237
0.500879 310.44 96.797768
0.501157 455.16 96.847601
0.501436 184.18 96.148951
0.501714 172.68 96.522638
0.501993 227.52 96.190018
0.502272 65.56 96.1409
0.50255 239.61 96.40171
0.502829 212.14 95.284493
0.503107 311.24 96.24595
0.503386 177.33 96.479022
0.503664 261.23 95.161151
0.503943 181.77 95.891735
0.504222 336.6 94.764067
0.5045 306.81 95.771445
0.504779 274.28 95.328993
0.505057 333.23 95.373115
0.505336 338.67 95.777071
0.505614 328.65 94.702782
0.505893 252.31 95.303606
0.506172 257.51 94.396708
0.50645 371.46 95.382364
0.506729 338.89 96.063924
0.507007 360.02 94.691202
0.507286 106.53 95.398815
0.507564 195.17 94.516945
0.507843 274.98 95.181902
0.508122 242.32 95.52841
0.5084 350.07 95.205224
0.508679 471.68 95.34394
0.508957 293.63 94.378368
0.509236 410.51 95.085356
0.509514 355.86 94.988285
0.509793 312.85 94.738152
0.510072 288.53 95.05378
0.51035 263.37 94.629559
0.510629 322.05 94.950684
0.510907 249.85 94.744032
0.511186 354.1 94.50973
0.511464 299.08 95.049446
0.511743 289.28 94.855444
0.512022 168.95 94.567016
0.5123 151.57 94.346367
0.512579 386.81 94.681733
0.512857 329.94 94.477088
0.513136 386.38 94.469165
0.513414 278.93 95.371113
0.513693 450.63 94.328824
0.513972 376.7 94.525789
0.51425 228.76 94.132821
0.514529 304.29 94.71095
0.514807 309.56 94.381587
0.515086 295.15 94.701749
0.515364 266.97 94.315867
0.515643 231.96 93.987405
0.515922 296 94.42986
0.5162 135.99 94.186971
0.516479 303.97 94.582724
0.516757 241.32 94.517673
0.517036 145.04 94.389939
0.517314 309.79 94.598701
0.517593 247.88 94.28443
0.517872 394.28 94.133431
0.51815 288.32 95.027273
0.518429 122.1 93.970107
0.518707 290.56 94.288574
0.518986 -2.02 94.355835
0.519264 308.72 94.492695
0.519543 111.26 94.477399
0.519822 319.61 94.356821
0.5201 36.62 94.08212
0.520379 480.86 93.924324
0.520657 102.81 94.771992
0.520936 169.25 94.401808
0.521214 293.86 94.392782
0.521493 285.67 94.455056
0.521772 179.1 94.01982
0.52205 230.22 94.571899
0.522329 291.19 94.203498
0.522607 204.17 93.987357
0.522886 182.19 93.831481
0.523164 309.71 94.198046
0.523443 377.84 94.405973
0.523722 184.01 93.774965
0.524 517.31 94.326281
0.524279 128.43 93.816131
0.524557 119.94 93.690186
0.524836 370.58 93.328679
0.525114 267.63 93.402024
0.525393 182.62 93.372271
0.525671 135.12 93.450135
0.52595 367.95 93.737081
0.526229 171.04 93.214306
0.526507 214.26 93.56521
0.526786 245.64 93.701404
0.527064 312.6 93.69957
0.527343 230.56 93.407214
0.527621 378.12 93.295861
0.5279 391.6 93.525774
0.528179 176.69 93.03884
0.528457 263.95 93.487932
0.528736 196.32 93.450599
0.529014 219.87 92.851362
0.529293 283.19 93.378091
0.529571 201.47 93.54525
0.52985 269.92 93.309976
0.530129 313.15 92.843659
0.530407 159.75 93.293642
0.530686 293.46 93.76725
0.530964 373.96 93.338582
0.531243 250.22 93.520614
0.531521 153.2 93.842259
0.5318 192.73 93.284551
0.532079 217.58 93.608564
0.532357 381.99 93.545399
0.532636 365.24 93.164184
0.532914 368.28 93.940337
0.533193 162.47 93.659537
0.533471 255.43 93.491578
0.53375 217.23 93.235941
0.534029 341.85 93.65207
0.534307 194.24 93.445493
0.534586 303.82 93.271443
0.534864 187.97 93.246982
0.535143 393.52 93.226126
0.535421 67.83 93.652087
0.5357 70.82 93.837451
0.535979 47.71 93.351949
0.536257 263.67 93.73627
0.536536 -11.1 93.713795
0.536814 299.65 92.934803
0.537093 310.17 93.632191
0.537371 222.63 93.403485
0.53765 231.07 93.649714
0.537929 467.72 93.029394
0.538207 230.15 93.002735
0.538486 277.61 93.456795
0.538764 269.29 93.198833
0.539043 487.77 93.336628
0.539321 51.41 92.972774
0.5396 354.29 92.801831
0.539879 317.61 93.067425
0.540157 165.47 93.001845
0.540436 268.17 93.005223
0.540714 300.73 93.173652
0.540993 330.71 92.828041
0.541271 250.76 93.288059
0.54155 279.21 92.411444
0.541829 224.32 92.696923
0.542107 494.36 92.381637
0.542386 145.15 93.041947
0.542664 206.21 92.699712
0.542943 193.09 92.57643
0.543221 145.76 92.408462
0.5435 287.58 92.570985
0.543779 256.94 91.956292
0.544057 212.72 92.878964
0.544336 185.69 92.216931
0.544614 364.01 93.116597
0.544893 175.12 92.537268
0.545171 236.55 92.41413
0.54545 120.4 92.205776
0.545729 134.05 92.726919
0.546007 188.67 92.98895
0.546286 212.54 92.4069
0.546564 250.16 92.185526
0.546843 267.26 92.613259
0.547121 222.12 92.128146
0.5474 199.87 92.632768
0.547679 241.19 93.002949
0.547957 197.78 92.612527
0.548236 354.22 92.509746
0.548514 244.85 92.188408
0.548793 90.23 92.632107
0.549071 367.28 93.194906
0.54935 194.25 92.981817
0.549629 423.53 92.731888
0.549907 344.33 92.756666
0.550186 133.44 92.639812
0.550464 201.63 94.477097
0.550743 177.93 95.877287
0.551021 181.35 97.48704
0.5513 149.72 97.260909
0.551579 231.69 98.436579
0.551857 146.53 99.010753
0.552136 362.91 98.966058
0.552414 346.92 99.998674
0.552693 313.73 100.13963
0.552971 349.81 101.12752
0.55325 276.55 101.48383
0.553529 173.46 101.55224
0.553807 391.95 102.21527
0.554086 317.2 102.66941
0.554364 232.81 103.71681
0.554643 197.01 104.09678
0.554921 299.37 103.92552
0.5552 238.81 104.56738
0.555479 253.5 104.73351
0.555757 214.53 105.63948
0.556036 403.02 105.95394
0.556314 337.74 106.74099
0.556593 101.78 106.99485
0.556871 275.24 106.89732
0.55715 112.16 104.71548
0.557429 73.57 103.44606
0.557707 113.14 102.7063
0.557986 169.07 101.77871
0.558264 402.93 101.57614
0.558543 286.33 100.71816
0.558821 265.95 101.01023
0.5591 246.29 100.67841
0.559379 121.75 100.10285
0.559657 128.26 100.19195
0.559936 284.11 99.658796
0.560214 229.49 99.869271
0.560493 329.7 99.564734
0.560771 146.75 99.074718
0.56105 242.22 99.315794
0.561329 72.47 99.391823
0.561607 202.16 98.399058
0.561886 10.71 98.596566
0.562164 32.4 99.008647
0.562443 317.45 99.426404
0.562721 207.54 98.516417
0.563 195.1 98.538873
0.563278 272.43 97.866562
0.563557 241.67 98.128104
0.563836 232.69 97.925268
0.564114 198.48 98.250799
0.564393 247.91 97.848852
0.564671 167.25 97.966055
0.56495 52.43 97.848206
0.565228 243.29 98.399525
0.565507 230.16 98.03926
0.565786 99.83 98.178994
0.566064 230.63 98.278368
0.566343 236.41 97.973172
0.566621 94.44 97.635707
0.5669 161.44 98.026536
0.567178 155.3 97.870374
0.567457 277.38 98.028235
0.567736 281.89 96.960282
0.568014 291.41 97.107878
0.568293 288.55 97.400791
0.568571 355.4 97.144718
0.56885 323.51 97.239811
0.569128 207.57 96.8234
0.569407 249.63 97.195293
0.569686 149.72 97.141437
0.569964 327.89 96.735031
0.570243 172.74 96.933774
0.570521 350.8 96.530612
0.5708 136.97 96.856999
0.571078 170.6 96.557053
0.571357 188.14 96.098476
0.571636 222.82 96.597006
0.571914 160.47 96.263013
0.572193 194.95 96.196539
0.572471 120.47 96.530455
0.57275 265.89 96.285891
0.573028 404.99 96.538265
0.573307 185.43 96.323273
0.573586 203.8 95.868154
0.573864 379.27 96.565745
0.574143 222.44 96.07742
0.574421 122.2 96.02052
0.5747 241.28 96.630841
0.574978 202.95 95.857188
0.575257 243.19 96.480364
0.575536 253.82 95.905031
0.575814 281.93 96.046427
0.576093 216.48 96.254341
0.576371 175.19 95.967318
0.57665 319.09 96.326611
0.576928 343.18 95.937549
0.577207 245.31 96.15753
0.577486 149.82 96.120124
0.577764 146.34 95.948037
0.578043 371.18 96.122051
0.578321 285.92 96.181971
0.5786 247.3 95.925811
0.578878 216.03 96.317002
0.579157 254.77 95.857926
0.579436 264.52 95.992081
0.579714 186.63 95.697194
0.579993 297.24 95.7926
0.580271 132.87 96.318907
0.58055 270.6 95.997241
0.580828 19.91 95.746776
0.581107 340.38 95.554437
0.581386 273.19 95.704397
0.581664 204.47 95.239718
0.581943 137.15 95.539304
0.582221 222.59 96.035032
0.5825 277.47 95.370867
0.582778 120.35 95.393033
0.583057 352.79 95.610292
0.583336 285.55 95.245462
0.583614 327.91 95.734545
0.583893 203.75 95.61994
0.584171 151.06 95.53773
0.58445 284.08 95.638225
0.584728 305.58 95.510852
0.585007 358.52 95.210864
0.585286 232.87 95.159851
0.585564 264.51 95.22058
0.585843 180.51 95.689924
0.586121 310 95.336573
0.5864 303.06 95.964499
0.586678 397.26 95.396489
0.586957 235.38 95.498109
0.587236 306.51 95.774516
0.587514 164.81 95.351514
0.587793 355.73 95.325375
0.588071 319.42 95.537405
0.58835 309.76 95.515908
0.588628 114.48 95.355951
0.588907 181.62 95.060829
0.589186 387.09 95.506503
0.589464 440.9 95.362011
0.589743 205.4 95.031283
0.590021 307.05 95.138351
0.5903 194.85 94.24443
0.590578 164.49 95.26007
0.590857 304.54 94.961527
0.591136 102.21 94.326843
0.591414 325.13 94.735218
0.591693 333.85 94.769215
0.591971 145.83 94.984487
0.59225 224.06 95.398741
0.592528 190.83 95.165196
0.592807 305.37 94.772904
0.593086 349.05 95.497242
0.593364 299.36 94.705426
0.593643 193.35 94.763894
0.593921 240.12 95.005509
0.5942 141.96 95.093763
0.594478 345.37 95.150509
0.594757 270.03 94.827781
0.595036 153.37 95.156571
0.595314 235.04 94.656637
0.595593 299.6 94.721888
0.595871 270.82 94.829165
0.59615 150.41 94.695781
0.596428 325.85 95.205691
0.596707 247.38 94.56524
0.596986 182.03 94.343727
0.597264 100.06 94.418878
0.597543 135.43 94.739028
0.597821 217.44 94.622603
0.5981 277.25 94.124201
0.598378 37.16 94.726986
0.598657 320.85 94.477049
0.598935 285.13 94.411312
0.599214 115.49 94.830596
0.599493 273.51 94.588389
0.599771 204.66 94.247605
0.60005 328.03 94.656865
0.600328 287.62 94.339071
0.600607 224.24 94.705383
0.600885 166.71 94.574505
0.601164 198.13 94.809357
0.601443 177.32 94.83454
0.601721 238.29 94.028903
0.602 290.35 94.459961
0.602278 227.96 94.196251
0.602557 241.95 94.841781
0.602835 437.24 94.707586
0.603114 320.84 94.682876
0.603393 259.21 94.586484
0.603671 203.8 95.162059
0.60395 372.81 94.513349
0.604228 254.3 95.274701
0.604507 422.7 94.30673
0.604785 213.29 94.990277
0.605064 249.4 94.832559
0.605343 203.28 95.068672
0.605621 280.9 95.021178
0.6059 243.27 95.066038
0.606178 283.73 95.375854
0.606457 234.34 94.870862
0.606735 43.93 94.981704
0.607014 180.28 94.792384
0.607293 310.69 95.297279
0.607571 365.35 94.680471
0.60785 173.42 94.98519
0.608128 290.07 94.87617
0.608407 273.58 95.260013
0.608685 196.43 95.092494
0.608964 314.24 94.689957
0.609243 345.35 94.658042
0.609521 197.95 97.359212
0.6098 326.16 98.511937
0.610078 361.13 99.92647
0.610357 367.96 100.03576
0.610635 93.77 100.98887
0.610914 258.34 101.58168
0.611193 326.34 102.50054
0.611471 342.28 102.74921
0.61175 224.24 103.10183
0.612028 289.59 104.4267
0.612307 281.38 104.77589
0.612585 245.33 104.86475
0.612864 191.26 105.02717
0.613143 138.44 106.29087
0.613421 382.63 106.43059
0.6137 369.35 107.37029
0.613978 392.39 106.63807
0.614257 141.13 107.69408
0.614535 290.86 108.48507
0.614814 156.17 108.80663
0.615093 160.99 108.53571
0.615371 207.96 109.6893
0.61565 296.54 109.82331
0.615928 352.03 109.99568
0.616207 254.29 107.49204
0.616485 91.31 105.26753
0.616764 326.77 104.67547
0.617043 72.77 103.99968
0.617321 334.71 103.48021
0.6176 193.97 102.84024
0.617878 121.55 102.8476
0.618157 196.93 102.38542
0.618435 108.35 101.86986
0.618714 349.91 102.09273
0.618993 118.46 101.97624
0.619271 60.32 100.89146
0.61955 386.39 101.7259
0.619828 328.4 101.15618
0.620107 250.95 100.98096
0.620385 281.02 100.87123
0.620664 281.81 100.70942
0.620943 306.3 100.38967
0.621221 242.69 100.35712
0.6215 340.64 100.64749
0.621778 248.31 100.41617
0.622057 279.73 99.273318
0.622335 412.72 100.69763
0.622614 237.34 100.45782
0.622893 188.24 99.536038
0.623171 214.46 100.25593
0.62345 246.68 99.979069
0.623728 100.3 100.23076
0.624007 264.11 100.2522
0.624285 204.09 99.383902
0.624564 332.71 99.504253
0.624843 193.49 99.687899
0.625121 174.01 99.639141
0.6254 240.78 99.796741
0.625678 197.27 99.431198
0.625957 233.49 99.758434
0.626235 201.64 99.695667
0.626514 238.43 99.341393
0.626793 123.03 99.473931
0.627071 206.49 99.227006
0.62735 391.33 99.294824
0.627628 285.45 98.839169
0.627907 173.31 99.492163
0.628185 95.85 99.328861
0.628464 233.82 99.249325
0.628743 101.69 98.99392
0.629021 305.59 99.208276
0.6293 199.65 98.430061
0.629578 168.95 99.011892
0.629857 385.86 99.098554
0.630135 269.94 99.208449
0.630414 348.59 98.574167
0.630693 -25.54 98.812942
0.630971 357.55 99.203114
0.63125 312.96 98.917709
0.631528 385.54 98.934213
0.631807 266.7 99.297799
0.632085 202.72 98.612497
0.632364 194.76 98.719825
0.632643 129.53 98.644439
0.632921 141.87 98.402247
0.6332 1 98.896513
0.633478 121.64 98.840472
0.633757 276.69 98.709598
0.634035 209.64 98.400921
0.634314 184.21 98.608747
0.634592 253.09 98.693047
0.634871 103.98 98.878667
0.63515 198.04 98.556864
0.635428 192.69 98.891452
0.635707 153.45 98.05465
0.635985 250.7 98.688221
0.636264 298.59 97.853877
0.636542 316 98.136653
0.636821 198.97 98.480479
0.6371 237.29 97.72446
0.637378 402.9 97.932842
0.637657 132.03 97.877922
0.637935 325.87 97.602349
0.638214 246.75 97.733676
0.638492 34.77 97.588383
0.638771 93.88 97.459034
0.63905 180.83 98.055169
0.639328 246.65 97.673939
0.639607 167.04 97.485647
0.639885 324.46 96.82164
0.640164 239.86 97.455809
0.640442 285.6 97.621378
0.640721 308.89 97.054506
0.641 254.03 96.382583
0.641278 183.22 97.559645
0.641557 317.12 97.318253
0.641835 126.45 96.879165
0.642114 355.77 97.197125
0.642392 268.81 97.18655
0.642671 -4 97.783733
0.64295 298.9 96.978654
0.643228 188.8 97.244491
0.643507 81.95 97.228958
0.643785 172.4 97.419005
0.644064 280.2 97.18068
0.644342 195.58 97.467463
0.644621 416.89 97.259341
0.6449 129.61 97.665923
0.645178 301.65 97.617474
0.645457 151.65 97.33915
0.645735 232.3 96.94961
0.646014 214.91 97.247067
0.646292 106.48 97.286194
0.646571 237.93 97.147668
0.64685 170.01 97.296364
0.647128 136.63 97.174511
0.647407 -36.37 97.013522
0.647685 254.28 97.130182
0.647964 145.54 97.303621
0.648242 232.15 96.739315
0.648521 308.08 97.574502
0.6488 280.55 97.320809
0.649078 252.29 97.380884
0.649357 306.09 97.695733
0.649635 159.98 97.091879
0.649914 295.42 97.453246
0.650192 349.83 96.870318
0.650471 294.5 97.077334
0.65075 177.07 97.321829
0.651028 269.57 96.754731
0.651307 172.19 97.166693
0.651585 129.54 97.081692
0.651864 411.98 97.114887
0.652142 280.65 97.258311
0.652421 113.98 96.234176
0.6527 103.19 97.172131
0.652978 149.75 97.272784
0.653257 121.36 96.742817
0.653535 357.13 97.175629
0.653814 288.91 97.303175
0.654092 129.07 96.660793
0.654371 -1.86 97.13615
0.65465 181.41 96.592677
0.654928 343.18 97.607205
0.655207 111.38 96.589116
0.655485 395.12 97.398892
0.655764 196.61 97.21261
0.656042 225.08 97.072469
0.656321 324.67 96.970965
0.6566 311.01 96.708679
0.656878 376.96 96.687922
0.657157 349.44 96.91874
0.657435 277.24 96.794563
0.657714 -0.22 97.345117
0.657992 233.18 96.871728
0.658271 181.06 96.963358
0.65855 329.95 97.559409
0.658828 179.28 96.941451
0.659107 250.02 97.563937
0.659385 343.38 97.599193
0.659664 159.27 97.311503
0.659942 326.17 97.149837
0.660221 261.39 97.290052
0.6605 134.09 97.296171
0.660778 349.97 97.573772
0.661057 78.13 97.015622
0.661335 329.71 97.254052
0.661614 373.97 97.79055
0.661892 215.73 97.106004
0.662171 74.92 96.760709
0.66245 329.74 96.876159
0.662728 260.91 97.458075
0.663007 166.3 96.898761
0.663285 210.1 97.056041
0.663564 221.34 96.944655
0.663842 257.55 96.808433
0.664121 265.75 97.254614
0.6644 271.29 96.881534
0.664678 142.72 96.331832
0.664957 337.86 96.957488
0.665235 319.98 96.622305
0.665514 127.93 96.249218
0.665792 210.75 96.797999
0.666071 94.46 96.580233
0.66635 138.47 96.506645
0.666628 98.91 96.592893
0.666907 -19.78 96.606353
0.667185 224.03 96.344051
0.667464 269.39 96.612323
0.667742 427.95 96.501421
0.668021 98.78 96.691156
0.6683 350.89 96.352564
0.668578 280.21 98.753104
0.668857 113.56 100.11276
0.669135 316.29 101.34365
0.669414 345.4 101.9322
0.669692 161.8 103.68723
0.669971 163.17 103.85693
0.67025 255.28 104.17867
0.670528 331.68 104.07197
0.670807 9.22 105.92901
0.671085 223.47 106.32099
0.671364 157.53 106.90597
0.671642 50.55 107.43922
0.671921 73.23 107.52253
0.672199 86.48 109.31318
0.672478 247.31 108.98555
0.672757 366.39 109.77845
0.673035 300.51 111.14832
0.673314 127.3 111.13926
0.673592 391.8 111.3565
0.673871 42.12 112.80445
0.674149 287.91 111.70915
0.674428 268.39 113.53251
0.674707 124.88 113.89312
0.674985 280.06 114.38302
0.675264 215.88 114.16167
0.675542 49.7 114.76689
0.675821 139.26 115.01005
0.676099 284.66 115.85955
0.676378 289.41 116.00389
0.676657 161.27 117.1444
0.676935 367.69 117.23121
0.677214 377.62 117.53981
0.677492 127.07 118.16485
0.677771 107.27 118.31456
0.678049 110.16 120.67357
0.678328 131.73 119.17408
0.678607 222.78 120.58812
0.678885 191.71 121.12576
0.679164 294.98 121.59727
0.679442 306.9 121.56465
0.679721 448.08 123.09503
0.679999 211.26 123.00233
0.680278 297.14 122.74778
0.680557 97.95 123.62577
0.680835 121.85 125.0273
0.681114 95.34 125.91249
0.681392 175.94 124.53046
0.681671 14.96 125.75127
0.681949 168.12 126.77053
0.682228 267.19 126.98911
0.682507 366.49 127.29433
0.682785 175.93 127.70648
0.683064 400.44 127.78995
0.683342 303.19 128.67725
0.683621 203.24 127.99183
0.683899 154.62 128.19101
0.684178 194.95 128.88673
0.684457 22.19 129.66319
0.684735 386.43 130.09888
0.685014 286.48 130.25464
0.685292 192.14 130.21905
0.685571 340.1 130.80575
0.685849 237.93 131.74541
0.686128 77.38 131.58048
0.686407 241.31 132.82895
0.686685 224.76 134.54595
0.686964 64.58 134.43262
0.687242 141.46 133.70306
0.687521 348.77 135.43781
0.687799 96.57 136.12377
0.688078 262.28 136.29897
0.688357 283.62 136.23113
0.688635 336.06 137.59717
0.688914 404.11 138.69775
0.689192 206.42 139.52988
0.689471 91.25 138.11237
0.689749 120.7 140.46705
0.690028 178.99 140.06691
0.690307 305.01 142.42657
0.690585 269.83 141.26515
0.690864 309.61 142.16499
0.691142 156.48 143.6762
0.691421 114.36 143.70745
0.691699 337.04 144.31799
0.691978 386.54 145.99157
0.692257 386.66 145.77017
0.692535 429.7 146.09924
0.692814 113.4 147.33386
0.693092 350.53 145.5874
0.693371 360.68 148.86937
0.693649 535.2 148.04418
0.693928 428.88 150.62807
0.694207 390.78 148.63735
0.694485 114.16 150.56239
0.694764 35.33 150.99334
0.695042 -1.16 152.53453
0.695321 294.35 152.14268
0.695599 168.59 153.40902
0.695878 462.9 153.4898
0.696157 172.64 156.4719
0.696435 269.8 155.07784
0.696714 330.53 155.79755
0.696992 51.74 158.40589
0.697271 335.03 157.71296
0.697549 252.77 158.04992
0.697828 -57.34 159.16685
0.698107 434.72 159.69348
0.698385 617.06 162.01316
0.698664 297.36 162.31092
0.698942 293.5 162.49956
0.699221 253.91 162.35371
0.699499 67.88 164.25499
0.699778 -77.83 167.20468
0.700057 62.98 166.28257
0.700335 -96.49 167.01095
0.700614 339.72 170.15991
0.700892 18.02 169.97279
0.701171 337.67 170.96403
0.701449 125.48 172.28682
0.701728 -84.2 172.56447
0.702007 624.43 175.89711
0.702285 149.61 175.84867
0.702564 156.25 177.18165
0.702842 274.77 179.12358
0.703121 374.41 181.33725
0.703399 271.46 182.48165
0.703678 394.12 180.69306
0.703957 204.69 183.84403
0.704235 -7.16 186.42927
0.704514 244.78 185.93732
0.704792 -293.61 186.95368
0.705071 649.83 190.01198
0.705349 66.45 190.17458
0.705628 -86.91 195.6522
0.705907 -116.11 192.43769
0.706185 126.33 196.23553
0.706464 -179.04 197.53686
0.706742 62.78 197.47836
0.707021 -15.17 198.61292
0.707299 209.26 197.96287
0.707578 124.97 200.31997
0.707856 331.24 203.68271
0.708135 254.17 200.16956
0.708414 183.04 199.00034
0.708692 129.29 202.63644
0.708971 -185.65 203.67199
0.709249 21.69 208.4369
0.709528 1.25 204.39216
0.709806 259.57 209.43084
0.710085 230.69 213.86192
0.710364 321.95 214.73583
0.710642 27.55 212.84529
0.710921 -112.36 216.65466
0.711199 -71.7 222.13279
0.711478 475.05 224.9772
0.711756 129.54 228.34801
0.712035 250.91 227.75963
0.712314 161.97 233.18689
0.712592 280.01 235.93482
0.712871 162.47 240.70524
0.713149 242.22 241.01449
0.713428 186.87 245.39128
0.713706 181.75 249.84689
0.713985 474.46 252.85774
0.714264 84.56 249.05214
0.714542 411.96 255.86853
0.714821 -100.6 256.76521
0.715099 430.71 260.05836
0.715378 462.29 256.59927
0.715656 145.12 263.18455
0.715935 468.11 266.47744
0.716214 572.38 270.46173
0.716492 134.71 268.23575
0.716771 -196.4 269.52302
0.717049 707.55 273.59577
0.717328 86.54 278.58636
0.717606 307.21 277.32604
0.717885 598.58 277.09589
0.718164 -16.32 279.44398
0.718442 381.26 288.46081
0.718721 208.48 292.94235
0.718999 27.02 283.323
0.719278 481.05 295.47979
0.719556 26.23 298.22506
0.719835 83.6 305.3983
0.720114 -62.32 297.14276
0.720392 227.99 299.91207
0.720671 -325.1 311.24957
0.720949 -135.93 320.1261
0.721228 -459.38 305.42866
0.721506 744.25 314.90478
0.721785 318.94 324.10892
0.722064 804.16 325.06239
0.722342 -277.11 325.40911
0.722621 187.84 330.2231
0.722899 700.48 337.40018
0.723178 386.16 343.69818
0.723456 80.94 351.42562
0.723735 -426.88 342.049
0.724014 188.82 351.82983
0.724292 -360.06 355.52973
0.724571 661.07 368.1918
0.724849 279.79 360.4969
0.725128 -314.86 373.45527
0.725406 289.52 382.84984
0.725685 451.64 383.00337
0.725964 240.66 398.05634
0.726242 27.09 399.47818
0.726521 992.57 405.60045
0.726799 -513.77 415.08689
0.727078 346.54 425.26493
0.727356 7.31 437.78091
0.727635 -337.8 440.45636
0.727914 326.83 446.68078
0.728192 359.45 467.10082
0.728471 -271.13 476.14593
0.728749 702.19 483.7029
0.729028 -638.5 514.53563
0.729306 -304.9 522.26419
0.729585 -362.03 535.5403
0.729864 -189.46 543.48902
0.730142 1387.08 592.09379
0.730421 1091.37 589.45093
0.730699 537.87 619.0246
0.730978 681.67 659.33987
0.731256 896.64 666.36815
0.731535 508.54 726.52496
0.731814 731.42 775.70482
0.732092 560.31 809.65456
0.732371 53.66 876.00383
0.732649 -784.67 953.36153
0.732928 749.77 1102.9673
0.733206 1480.02 1315.9234

