# Q [1/Ã…] I(Q) [a.u.] dI(Q) [a.u.]
0.00223785 70109 25560.359
0.00251642 61985 19666.062
0.00279499 50084 13918.491
0.00307356 12796 10751.021
0.00335213 34633 7768.5556
0.0036307 37202 6522.4326
0.00390927 41315.5 5074.0983
0.00418784 34269.3 4300.1395
0.00446641 34267.2 3719.5859
0.00474498 36596.7 3240.5277
0.00502355 41272.9 2744.2108
0.00530212 39180.4 2423.6818
0.00558069 42182.7 2103.3954
0.00585926 40086.2 1943.3383
0.00613783 38194.1 1728.8428
0.0064164 40907.4 1490.9039
0.00669497 41682.9 1467.9573
0.00697355 40054.06 1262.7307
0.00725212 41065.63 1213.6949
0.00753069 39454.04 1091.3327
0.00780926 39471.87 1027.2698
0.00808783 38693.06 1001.0512
0.0083664 40186.75 916.91337
0.00864497 38173.76 870.68925
0.00892354 40294.48 828.56555
0.00920211 39589.13 785.87417
0.00948068 39675.82 784.34317
0.00975925 39007.04 719.69989
0.0100378 39334.39 705.62845
0.0103164 39472.53 680.74175
0.010595 40597.17 658.53764
0.0108735 38703.4 646.814
0.0111521 40127.08 620.44167
0.0114307 40079.76 624.81268
0.0117092 38973.9 587.25569
0.0119878 39628.82 576.29746
0.0122664 38479.7 570.65745
0.012545 39153.17 548.85638
0.0128235 39173.68 553.79439
0.0131021 39947.26 537.86221
0.0133807 39042 520.88264
0.0136592 38601.86 515.39774
0.0139378 38029.61 497.22984
0.0142164 38610.93 501.19903
0.0144949 38728.54 489.15272
0.0147735 38461.62 479.4031
0.0150521 38101.49 472.93338
0.0153307 38543.34 462.74087
0.0156092 38024.93 460.87225
0.0158878 38196.89 453.68213
0.0161664 38853 443.89494
0.0164449 38098.92 447.17746
0.0167235 38092.26 429.89123
0.0170021 37743.12 430.15458
0.0172806 37494.6 426.01552
0.0175592 37204.22 421.84596
0.0178378 37642.17 415.49534
0.0181164 37500.03 407.81889
0.0183949 37889.81 407.76693
0.0186735 37122.89 401.26011
0.0189521 36216.15 403.07041
0.0192306 36950.38 412.68772
0.0195092 37216.77 410.6205
0.0197878 37086.63 406.49646
0.0200664 36422.32 406.85294
0.0203449 36974.69 407.79512
0.0206235 36954.77 407.75378
0.0209021 36147.69 402.04677
0.0211806 36292.69 401.40759
0.0214592 36250.86 403.72153
0.0217378 36346.63 398.30447
0.0220163 35822.89 397.12491
0.0222949 35562.23 394.77399
0.0225735 35739.35 392.48792
0.0228521 35867.83 393.50187
0.0231306 34860.16 387.2944
0.0234092 35387.78 388.8502
0.0236878 35812.72 390.74074
0.0239663 35077.88 382.73819
0.0242449 35166.13 384.64407
0.0245235 35009.96 380.08786
0.024802 35322.95 383.13696
0.0250806 35089.99 380.5096
0.0253592 34685.18 374.05014
0.0256378 35034.11 371.0434
0.0259163 34380.25 356.2929
0.0261949 34565.68 358.29888
0.0264735 34855.15 352.02679
0.026752 34565.25 342.63287
0.0270306 34013.17 342.78428
0.0273092 33370.25 337.68163
0.0275877 33744.19 334.49092
0.0278663 33816.31 332.71339
0.0281449 33687.47 327.4272
0.0284235 33578.92 330.07545
0.028702 33424.76 322.93547
0.0289806 33221.34 320.3364
0.0292592 33337.25 319.31765
0.0295377 32909.75 315.95806
0.0298163 32914.82 311.92174
0.0300949 32694.93 309.77314
0.0303735 32689.1 306.85521
0.030652 32366.56 308.61416
0.0309306 32560.67 304.39469
0.0312092 32438.65 300.23839
0.0314877 32426.57 301.31776
0.0317663 31904.26 297.98686
0.0320449 32272.01 296.87331
0.0323234 32100.05 295.71538
0.032602 32495.84 290.55671
0.0328806 32053.13 290.6665
0.0331592 31805.74 288.75928
0.0334377 31419.45 286.99841
0.0337163 31046.65 289.38096
0.0339949 31052.34 289.33895
0.0342734 30854.47 295.16796
0.034552 30825.22 291.78667
0.0348306 30601.35 288.58651
0.0351091 30476.15 293.01698
0.0353877 30456.55 292.34078
0.0356663 30472.18 294.14747
0.0359449 30578.49 289.01292
0.0362234 30116.07 287.93862
0.036502 30124.61 290.74876
0.0367806 30270.69 289.55009
0.0370591 30049.4 292.32307
0.0373377 29556.56 284.72454
0.0376163 29706.23 286.59726
0.0378949 29279.54 287.0807
0.0381734 29265.37 282.18175
0.038452 29083.32 286.58205
0.0387306 28796.46 280.45073
0.0390091 28599.09 286.20825
0.0392877 28390.67 283.16392
0.0395663 28793.71 278.05733
0.0398448 28132.11 281.24368
0.0401234 28257.47 279.08937
0.040402 28532.28 281.9934
0.0406806 27666.97 277.06034
0.0409591 27815.84 273.54558
0.0412377 27719.05 276.92527
0.0415163 27437.1 273.28141
0.0417948 27569.29 274.33255
0.0420734 27204.78 273.27546
0.042352 27113.99 272.75135
0.0426305 27350.95 278.18152
0.0429091 27106.87 273.76729
0.0431877 26737.98 279.00084
0.0434663 26418.76 276.63084
0.0437448 27008.15 283.024
0.0440234 26224.03 282.38258
0.044302 26371.26 279.55999
0.0445805 26062.49 281.15098
0.0448591 25958.8 280.0776
0.0451377 26143.37 284.45693
0.0454163 25571.17 283.12214
0.0456948 25414.84 282.61412
0.0459734 25446.77 283.64615
0.046252 25390.8 283.1031
0.0465305 25056.81 276.25264
0.0468091 25275.02 276.91766
0.0470877 24802.4 272.11139
0.0473662 25215.36 270.18582
0.0476448 24424.23 269.77572
0.0479234 25090.74 267.34046
0.048202 24230.35 265.13723
0.0484805 24507.61 264.42981
0.0487591 24071.78 260.51205
0.0490377 23783 261.41401
0.0493162 24159.34 257.02686
0.0495948 24084.04 259.31113
0.0498734 23394.29 253.31827
0.0501519 23513.3 254.1757
0.0504305 22981.42 256.10007
0.0507091 22987.71 253.37871
0.0509877 23084.32 254.65658
0.0512662 23150.79 252.44816
0.0515448 22621.2 252.00915
0.0518234 22279.13 251.49218
0.0521019 22509.77 249.80872
0.0523805 22429.88 251.44716
0.0526591 22397.58 250.66703
0.0529376 21815.96 246.86206
0.0532162 21887.08 249.2614
0.0534948 21917.14 247.27284
0.0537734 21695.41 246.7717
0.0540519 21217.15 244.682
0.0543305 20927.86 243.59541
0.0546091 21159.39 243.91326
0.0548876 20955.25 239.08896
0.0551662 20919.78 239.02891
0.0554448 20342.85 239.6216
0.0557234 20408.72 236.15055
0.0560019 20344.64 237.56488
0.0562805 19885.55 232.07593
0.0565591 20210.59 233.8932
0.0568376 20132.53 234.78249
0.0571162 19545.55 230.91702
0.0573948 19786.04 232.85554
0.0576733 19462.54 229.98469
0.0579519 19719.19 230.89543
0.0582305 19538.76 230.05899
0.0585091 19374.68 229.14995
0.0587876 18883.24 228.23876
0.0590662 18951.98 227.63311
0.0593448 18682.28 226.55482
0.0596233 18754.19 225.8608
0.0599019 18161.87 223.67966
0.0601805 18904.31 226.71451
0.060459 18264.11 224.18739
0.0607376 18304.01 221.57242
0.0610162 18003.18 221.50629
0.0612948 18108.32 222.02648
0.0615733 17797.63 221.84584
0.0618519 17887.84 219.64611
0.0621305 17304.68 218.54435
0.062409 17442.07 218.84999
0.0626876 17037.91 219.55758
0.0629662 17090.84 217.05282
0.0632448 17014.75 216.54319
0.0635233 16500.18 215.15602
0.0638019 16567.23 215.14093
0.0640805 16567.47 215.9173
0.064359 17066.98 214.29386
0.0646376 16294.32 213.53915
0.0649162 16574.31 213.83087
0.0651947 16041.12 212.50079
0.0654733 15692.49 210.08333
0.0657519 15791.56 210.64578
0.0660305 15615.76 212.10896
0.066309 15777.89 210.1944
0.0665876 15552.31 209.74673
0.0668662 15625.84 207.6462
0.0671447 15068.9 206.49402
0.0674233 15182.12 208.13547
0.0677019 15048.8 204.94055
0.0679804 15219.44 206.38489
0.068259 15003.61 206.26044
0.0685376 15059.67 204.40159
0.0688162 14508.87 203.66881
0.0690947 14497.88 201.11044
0.0693733 13908.74 203.76768
0.0696519 14092.14 201.57218
0.0699304 14453.24 202.12876
0.070209 13875.3 200.68816
0.0704876 13674.19 197.60503
0.0707662 13719.28 199.92002
0.0710447 13854.66 199.83198
0.0713233 13810.6 197.98282
0.0716019 13473.93 197.97167
0.0718804 13637.9 195.22336
0.072159 12970.43 197.05127
0.0724376 12900.4 196.11581
0.0727161 13069.5 194.93037
0.0729947 12752.07 194.16229
0.0732733 12867.25 195.89623
0.0735519 12705.98 194.2423
0.0738304 12446.07 192.48189
0.074109 12545.23 192.1877
0.0743876 12578.7 192.21658
0.0746661 12159.08 191.64756
0.0749447 12163.43 188.71903
0.0752233 12052.99 189.71158
0.0755018 12118.58 189.27016
0.0757804 11871.44 189.98071
0.076059 11702.83 189.40912
0.0763376 11881.66 189.30204
0.0766161 11627.28 187.03111
0.0768947 11504.98 186.89621
0.0771733 11091.06 186.52595
0.0774518 11109.64 185.52215
0.0777304 11228.63 185.32342
0.078009 11429.81 190.08509
0.0782875 10858.45 190.2291
0.0785661 10867.05 190.312
0.0788447 10756.65 191.85377
0.0791233 10650.82 192.82573
0.0794018 10792.97 195.60926
0.0796804 10942.91 193.43527
0.079959 10479.38 194.35392
0.0802375 10026.79 193.45593
0.0805161 10595.25 195.42268
0.0807947 9669.42 196.07545
0.0810733 10305.59 194.63386
0.0813518 10268.94 196.4495
0.0816304 9966.86 195.83497
0.081909 9909.31 195.40897
0.0821875 9587.64 196.52221
0.0824661 9869.03 196.48751
0.0827447 10065.43 197.82603
0.0830232 9525.43 197.19353
0.0833018 9179.39 195.06429
0.0835804 9061.57 196.78156
0.083859 9360.62 197.36336
0.0841375 8722.25 197.04392
0.0844161 8729.31 195.59718
0.0846947 8632.49 193.63034
0.0849732 8994.82 191.21722
0.0852518 8854.44 189.69254
0.0855304 8542.34 187.63989
0.0858089 8521.2 185.14534
0.0860875 8369.91 184.92588
0.0863661 8267.79 182.65937
0.0866447 8193.98 182.21998
0.0869232 8045.41 182.12651
0.0872018 8274.66 181.33422
0.0874804 7531.04 179.95212
0.0877589 8141.19 178.87332
0.0880375 7823.95 177.47703
0.0883161 7681.71 177.63624
0.0885947 7740.29 178.06794
0.0888732 7848.44 177.32396
0.0891518 7153.08 174.10204
0.0894304 7579.25 174.67938
0.0897089 7206.82 173.53773
0.0899875 7376.78 173.30958
0.0902661 7388.69 172.25932
0.0905446 7082.19 170.06062
0.0908232 7145 171.59844
0.0911018 7053.88 170.45929
0.0913804 6846.33 168.32483
0.0916589 6842.05 167.9481
0.0919375 7022.23 171.4597
0.0922161 6875.67 175.16977
0.0924946 6943.98 173.79811
0.0927732 6859.43 175.60834
0.0930518 6812.15 176.03912
0.0933303 6887.88 177.9214
0.0936089 6465.56 177.32262
0.0938875 6398.93 177.12849
0.0941661 6100.49 177.77083
0.0944446 6172.2 177.36368
0.0947232 6257.08 176.50343
0.0950018 6095.78 177.275
0.0952803 6174.84 177.79993
0.0955589 5867.53 179.6521
0.0958375 5996.1 175.37208
0.0961161 5693.48 172.74628
0.0963946 5830.36 171.11873
0.0966732 5860.06 169.65238
0.0969518 5743.79 170.76498
0.0972303 5520.78 167.99779
0.0975089 5158.87 166.45943
0.0977875 5421.02 166.91695
0.098066 5094.85 166.33141
0.0983446 5474 166.62606
0.0986232 5397.38 165.29968
0.0989018 5060.06 166.69975
0.0991803 5206.85 165.28151
0.0994589 5182.09 162.98557
0.0997375 5026.16 162.27895
0.100016 4968.58 162.17839
0.100295 4878.45 161.02434
0.100573 4970.38 160.46236
0.100852 5027.81 160.27186
0.10113 4625.74 159.9539
0.101409 4845.47 158.50014
0.101687 4866.4 157.76923
0.101966 4648.17 156.90202
0.102245 4810.75 157.26085
0.102523 4441.34 156.71018
0.102802 4411.21 156.53934
0.10308 4253.75 155.52132
0.103359 4208.48 155.4758
0.103637 4554.37 156.33678
0.103916 4359.54 154.97716
0.104195 4354.95 154.47243
0.104473 4110.89 154.48322
0.104752 4332.14 154.26467
0.10503 4094.15 154.25291
0.105309 3931.51 153.12639
0.105587 4159.39 153.91112
0.105866 3620.96 151.14484
0.106145 3639.76 152.72667
0.106423 3883.59 152.34498
0.106702 3564.84 150.58155
0.10698 3729.45 152.47094
0.107259 3771.64 149.62703
0.107537 3652.16 151.07534
0.107816 3811.83 150.28633
0.108095 3703.48 150.00522
0.108373 3520.93 150.07613
0.108652 3369.96 149.14656
0.10893 3668.95 149.02941
0.109209 3375.72 148.81898
0.109487 3324.07 148.15253
0.109766 3563.3 149.15233
0.110045 3340.62 148.65672
0.110323 3325.16 148.41976
0.110602 3299.85 147.79358
0.11088 3061.39 147.85451
0.111159 3175.15 147.45542
0.111437 3203.49 146.30114
0.111716 3135.45 145.89632
0.111995 3019.14 146.66894
0.112273 2947.25 145.98467
0.112552 2823.5 146.31666
0.11283 3024.74 145.06407
0.113109 3206.98 146.11125
0.113387 2982.2 145.35697
0.113666 2759.14 144.53917
0.113945 2817.83 144.85842
0.114223 2774.87 143.69672
0.114502 2879.07 144.81652
0.11478 2850.61 145.22337
0.115059 2500.44 142.7168
0.115337 2680.4 143.37292
0.115616 2546.34 142.66507
0.115895 2681.26 142.86349
0.116173 2630.09 143.39336
0.116452 2595.99 141.92277
0.11673 2231.69 141.65276
0.117009 2503.61 142.25527
0.117287 2687.26 141.35425
0.117566 2275.43 141.39686
0.117845 2572.62 140.24615
0.118123 2583.69 141.54758
0.118402 2339.54 140.62699
0.11868 2449.33 139.0882
0.118959 2161.68 139.89242
0.119237 2156.03 138.69754
0.119516 2197.52 139.82343
0.119795 2340.76 138.77653
0.120073 2102.62 138.50468
0.120352 2251.9 139.76519
0.12063 2370.11 138.04249
0.120909 1869.41 138.51394
0.121187 2117.62 138.29821
0.121466 2115 137.24984
0.121745 2021.9 137.56284
0.122023 1953.44 136.65792
0.122302 2059.46 136.09076
0.12258 1881.39 135.70817
0.122859 2101.99 135.77706
0.123137 1673.05 136.15706
0.123416 1816.89 135.12169
0.123695 1855.53 134.70656
0.123973 1781.65 134.8268
0.124252 1920.84 133.64073
0.12453 1843.26 134.2083
0.124809 1730.98 134.03674
0.125087 1623.06 134.60239
0.125366 1800.78 133.98379
0.125645 1778.8 133.28325
0.125923 1743.74 133.15871
0.126202 1564.02 132.97487
0.12648 1192.71 132.91401
0.126759 1549.07 133.86482
0.127037 1423.32 133.33603
0.127316 1470.55 133.36126
0.127594 1513.18 133.10504
0.127873 1426.23 133.30225
0.128152 1643.23 132.75022
0.12843 1327.6 131.93575
0.128709 1196.72 132.11384
0.128987 1620.95 132.06684
0.129266 1358.24 131.50826
0.129544 1666.57 132.25253
0.129823 1401.62 131.14885
0.130102 1169.31 131.55722
0.13038 1249.25 130.43819
0.130659 1376.75 130.43659
0.130937 1243.19 130.90851
0.131216 1183.03 130.40225
0.131494 1221.44 129.94743
0.131773 1247.97 130.53753
0.132052 1116.91 128.45521
0.13233 1150.59 130.63628
0.132609 1396.5 129.00896
0.132887 1327.14 129.36935
0.133166 1273.06 129.5668
0.133444 1074.51 128.27282
0.133723 1220.92 129.60129
0.134002 1130.69 127.83625
0.13428 1095.9 128.27326
0.134559 1116.29 129.33667
0.134837 1163.68 128.00585
0.135116 1178.69 128.49222
0.135394 1124.75 127.16376
0.135673 1064.83 127.70292
0.135952 1120.77 128.20403
0.13623 858.4 126.70983
0.136509 956.87 127.63571
0.136787 1107.32 126.81282
0.137066 825.05 128.55029
0.137344 1259.49 130.51773
0.137623 752.37 129.88057
0.137902 982.48 132.63525
0.13818 1032.62 132.43385
0.138459 1023.4 132.32115
0.138737 756.04 133.14843
0.139016 1139.61 133.14273
0.139294 917.66 134.40334
0.139573 740.92 134.15321
0.139852 969.13 134.48357
0.14013 980.99 135.29861
0.140409 815.59 134.46109
0.140687 702.67 135.41971
0.140966 936.74 136.28294
0.141244 981.57 135.73956
0.141523 658.69 137.13097
0.141802 642.31 137.13984
0.14208 555.15 137.04591
0.142359 690.4 135.94348
0.142637 763.51 137.8688
0.142916 829.49 138.4563
0.143194 785.58 137.42387
0.143473 671.71 138.84596
0.143752 1005.14 135.1116
0.14403 602.96 134.66318
0.144309 682.87 132.87436
0.144587 626.16 131.68592
0.144866 589.13 130.51908
0.145144 817.86 130.64428
0.145423 659.58 129.67356
0.145702 743.24 129.25808
0.14598 720.42 130.14889
0.146259 651.76 128.24568
0.146537 683.72 128.25457
0.146816 526.16 127.96793
0.147094 633.26 127.99993
0.147373 678.91 127.08547
0.147652 507.89 127.90368
0.14793 560.12 126.6174
0.148209 730.07 126.95606
0.148487 682.78 126.06618
0.148766 532.65 126.58244
0.149044 555.41 125.29309
0.149323 626.3 125.1718
0.149602 533.63 125.42431
0.14988 474.36 124.7716
0.150159 492.48 125.05429
0.150437 529.02 124.90705
0.150716 557.51 125.75682
0.150994 764.75 124.9491
0.151273 555.56 124.88787
0.151552 647.7 124.62376
0.15183 420.02 123.96881
0.152109 498.48 124.45495
0.152387 535.17 123.23637
0.152666 555.38 124.01468
0.152944 668.47 123.62781
0.153223 651.85 123.30217
0.153502 501.08 123.52507
0.15378 471.26 122.45921
0.154059 383.39 123.39864
0.154337 586.9 122.02192
0.154616 354.36 121.79907
0.154894 539.46 123.44152
0.155173 272.57 121.28141
0.155452 592.08 122.45297
0.15573 345.12 121.48095
0.156009 283.85 121.89338
0.156287 552.21 121.14602
0.156566 467.28 120.27549
0.156844 335.21 121.01257
0.157123 276.96 121.15075
0.157402 413.19 120.21874
0.15768 588.05 120.61618
0.157959 407.25 120.16289
0.158237 363.47 120.02143
0.158516 290.47 120.78577
0.158794 509.37 120.40502
0.159073 391.64 120.18106
0.159352 443.73 120.26552
0.15963 530.65 119.48678
0.159909 503.46 119.54564
0.160187 363.66 119.21917
0.160466 516.25 119.68102
0.160744 396.23 119.37664
0.161023 439.41 118.71556
0.161302 445.01 118.52973
0.16158 456.87 118.03367
0.161859 341 118.46293
0.162137 394.79 118.44272
0.162416 156.99 117.39321
0.162694 417.96 117.89905
0.162973 315.14 117.83258
0.163252 345.04 117.52425
0.16353 601.29 118.13318
0.163809 512.7 116.23534
0.164087 605.05 117.84751
0.164366 282.88 117.21773
0.164644 317.03 116.51001
0.164923 353.76 117.26492
0.165201 313.22 116.40996
0.16548 517.04 117.36105
0.165759 257.14 115.72956
0.166037 272.98 116.11615
0.166316 338.81 116.49367
0.166594 354.65 115.59514
0.166873 319.42 116.17697
0.167151 408.92 115.4207
0.16743 243.3 115.20095
0.167709 260.73 115.2253
0.167987 183.24 114.72897
0.168266 328.04 114.64767
0.168544 158.05 115.09584
0.168823 490.68 115.25287
0.169101 414.64 115.53602
0.16938 321.18 114.57705
0.169659 328.03 114.71977
0.169937 425.62 114.93397
0.170216 365.36 115.16115
0.170494 292.92 114.16121
0.170773 224.09 114.55522
0.171051 220.61 114.13318
0.17133 302.05 114.58448
0.171609 374.03 113.86528
0.171887 285.65 114.47547
0.172166 376.32 114.52968
0.172444 224.87 114.66575
0.172723 172.08 114.17138
0.173001 360.17 113.90143
0.17328 279.25 114.21831
0.173559 186.19 114.21836
0.173837 285.8 113.4591
0.174116 204.02 113.42441
0.174394 323.41 114.11952
0.174673 285.99 114.52698
0.174951 270.76 113.36359
0.17523 221.57 113.36458
0.175509 55.85 113.48802
0.175787 375.39 113.38908
0.176066 275.79 113.32683
0.176344 211.77 113.06805
0.176623 246.24 112.84063
0.176901 496.67 113.14709
0.17718 311.67 112.6525
0.177459 229.52 113.30119
0.177737 199.46 113.02028
0.178016 405.49 111.73788
0.178294 494.11 112.70255
0.178573 478.77 112.30632
0.178851 315.43 112.99653
0.17913 454.18 111.88091
0.179409 -33.04 111.7935
0.179687 394.84 112.84523
0.179966 163.69 112.19023
0.180244 157.41 111.70955
0.180523 405.01 112.2282
0.180801 147.86 111.65904
0.18108 90.28 111.97157
0.181359 141.59 111.51867
0.181637 228.78 111.50305
0.181916 284.53 111.34257
0.182194 392.51 111.58252
0.182473 192.49 111.90232
0.182751 354.46 111.39841
0.18303 264.7 112.82344
0.183309 297.77 112.51686
0.183587 245.8 112.64749
0.183866 376.11 112.26295
0.184144 350.19 111.94191
0.184423 250.79 112.7739
0.184701 309.43 113.14088
0.18498 459.25 112.9001
0.185259 371.67 112.96065
0.185537 297.93 112.13225
0.185816 572.8 113.10581
0.186094 230.1 112.38881
0.186373 108.22 111.86434
0.186651 280.54 112.13282
0.18693 420.87 112.26684
0.187209 266.55 111.62236
0.187487 353.44 111.88544
0.187766 289.41 111.07479
0.188044 322.93 111.02523
0.188323 381.36 111.40455
0.188601 665.17 111.26126
0.18888 291.56 111.40102
0.189159 99.62 110.52529
0.189437 309.78 110.95698
0.189716 48.31 110.56523
0.189994 404.28 110.02628
0.190273 345.73 110.57499
0.190551 251.37 110.50699
0.19083 320.4 109.97563
0.191109 80.94 110.49208
0.191387 317.69 108.9927
0.191666 234.22 110.25769
0.191944 426.7 109.64801
0.192223 213.18 109.27272
0.192501 227.44 109.96518
0.19278 154.77 108.89648
0.193059 131.12 109.75262
0.193337 211.64 108.90277
0.193616 429.31 109.25922
0.193894 107 109.16594
0.194173 393.45 108.53868
0.194451 405.87 108.16084
0.19473 212.5 108.72334
0.195009 662.17 107.987
0.195287 121.28 109.34418
0.195566 193.08 107.82051
0.195844 426.15 109.03844
0.196123 162.37 109.44069
0.196401 106.57 110.5678
0.19668 137.05 112.05361
0.196959 193.15 111.67773
0.197237 144.29 112.86452
0.197516 443.54 112.76972
0.197794 225.2 112.69728
0.198073 434.4 113.85168
0.198351 345.19 112.94794
0.19863 391.08 114.41845
0.198909 343.52 113.88591
0.199187 430.14 114.22862
0.199466 525.2 115.60065
0.199744 425.13 114.6394
0.200023 6.96 115.4923
0.200301 269.18 115.62296
0.20058 674.53 116.76283
0.200858 152.94 116.71837
0.201137 290.3 116.35016
0.201416 374.85 116.83741
0.201694 386.67 116.82364
0.201973 346.05 116.86653
0.202251 261.07 117.95523
0.20253 353.21 118.46851
0.202808 279.35 115.62046
0.203087 275.94 115.30523
0.203366 298.88 114.0401
0.203644 129.45 113.80729
0.203923 290.19 113.37346
0.204201 185.68 113.15542
0.20448 346.26 112.68114
0.204758 271.32 111.2144
0.205037 256.41 111.94605
0.205316 120.94 111.76893
0.205594 319.73 111.45902
0.205873 408.86 111.76986
0.206151 503.67 110.79237
0.20643 356.02 110.97297
0.206708 230.67 110.3162
0.206987 329.31 110.14746
0.207266 302.12 110.87032
0.207544 31.46 109.75467
0.207823 440.61 111.02409
0.208101 277.39 110.38854
0.20838 343.29 109.83312
0.208658 313.06 109.94512
0.208937 487.9 109.44318
0.209216 514.68 111.00785
0.209494 252.91 109.13202
0.209773 279.27 109.06918
0.210051 248.55 109.44521
0.21033 282.57 108.92949
0.210608 139.24 109.7855
0.210887 171.63 108.58611
0.211166 335.26 109.00446
0.211444 169.82 108.78331
0.211723 346.15 107.89639
0.212001 236.39 108.68157
0.21228 339.46 107.42736
0.212558 316.34 109.23766
0.212837 354.17 108.41361
0.213116 209.14 107.55742
0.213394 193.64 107.9871
0.213673 233.16 107.36761
0.213951 168.44 107.85054
0.21423 192.18 107.70915
0.214508 499.16 107.17923
0.214787 64.67 107.4811
0.215066 307.06 107.65933
0.215344 270.37 107.06162
0.215623 167.62 107.2119
0.215901 187.15 107.01894
0.21618 119.17 106.93288
0.216458 177.21 106.78171
0.216737 265.12 106.5511
0.217016 136.26 106.0885
0.217294 139.71 106.76279
0.217573 288.88 106.47144
0.217851 363.41 105.79509
0.21813 251.07 105.47123
0.218408 238.7 106.00404
0.218687 189.65 105.76819
0.218966 88.84 105.40661
0.219244 153.57 105.90074
0.219523 108.66 105.55368
0.219801 262.25 105.78986
0.22008 291.6 105.04113
0.220358 203.99 105.18424
0.220637 296.14 106.06915
0.220916 164.58 105.25075
0.221194 244.72 104.91865
0.221473 143.31 105.07557
0.221751 350.39 104.97039
0.22203 68.26 105.5135
0.222308 166.16 104.77649
0.222587 55.89 104.36453
0.222866 399.09 105.28061
0.223144 206.4 104.58524
0.223423 318.06 105.34625
0.223701 24.79 104.28026
0.22398 369.23 105.49181
0.224258 322.79 105.44096
0.224537 383.47 104.9319
0.224816 252.94 103.85948
0.225094 169.2 104.01634
0.225373 347.71 104.89349
0.225651 327.52 104.6456
0.22593 202.76 103.83629
0.226208 95.87 104.16819
0.226487 395.96 103.63103
0.226766 -41.52 103.77592
0.227044 262.07 103.94604
0.227323 225.49 103.69798
0.227601 268.03 103.67542
0.22788 313.98 103.34744
0.228158 365.37 102.81397
0.228437 101.72 103.04125
0.228716 318.96 103.34819
0.228994 245.41 102.9675
0.229273 268.06 102.40423
0.229551 104.11 102.62251
0.22983 246.71 103.07335
0.230108 198.77 102.73794
0.230387 298.51 102.81874
0.230666 257.12 103.2969
0.230944 132.45 103.2348
0.231223 302.23 103.24991
0.231501 465.21 103.19387
0.23178 246.6 103.0994
0.232058 380.46 103.89943
0.232337 254.13 103.41442
0.232616 131.74 103.84378
0.232894 27.12 103.64195
0.233173 107.87 104.53439
0.233451 297.38 104.89729
0.23373 -11.36 103.963
0.234008 292.24 104.22754
0.234287 307.3 104.55012
0.234566 168.4 104.71035
0.234844 206.77 105.05285
0.235123 349.78 104.34704
0.235401 258.56 105.28928
0.23568 251.52 103.87597
0.235958 283.21 103.73817
0.236237 335.29 104.19156
0.236515 297.86 103.68498
0.236794 8.96 103.73905
0.237073 120.09 103.12261
0.237351 142.68 103.47104
0.23763 264.54 103.07101
0.237908 80.91 103.18543
0.238187 198.26 102.91302
0.238465 106.22 102.73822
0.238744 176.73 102.52056
0.239023 258.06 102.75129
0.239301 174.04 102.38957
0.23958 97.51 103.09387
0.239858 323.89 101.99939
0.240137 236.39 102.89251
0.240415 168.71 102.02726
0.240694 -67.71 101.61671
0.240973 346.22 102.09825
0.241251 76.14 101.92873
0.24153 195.1 101.76929
0.241808 182.99 101.85325
0.242087 141.07 101.81502
0.242365 41.84 101.4802
0.242644 329.29 101.25152
0.242923 347.84 101.29139
0.243201 350.78 101.3517
0.24348 226.67 100.7949
0.243758 175.44 100.50243
0.244037 108.23 100.52676
0.244315 423.6 100.57576
0.244594 101.79 100.05676
0.244873 393.52 100.35632
0.245151 83.38 99.950455
0.24543 390.9 100.59957
0.245708 -5.77 99.648266
0.245987 150.16 99.453456
0.246265 144.79 100.02284
0.246544 167.58 99.702232
0.246823 173.45 100.32466
0.247101 338.78 99.104141
0.24738 277.15 99.906598
0.247658 214.13 99.658976
0.247937 248.13 99.719585
0.248215 204.93 100.07309
0.248494 120.35 99.875851
0.248773 273.47 99.453169
0.249051 291.4 99.77598
0.24933 117.31 99.736862
0.249608 78.3 99.663429
0.249887 47.84 99.338566
0.250165 126.68 99.816418
0.250444 310.13 99.510679
0.250723 35.15 99.303984
0.251001 124.23 99.721962
0.25128 168.02 99.249393
0.251558 155.79 99.464269
0.251837 160.81 98.840174
0.252115 194.98 99.343821
0.252394 243.57 99.524259
0.252673 217.49 98.991131
0.252951 354.82 99.188272
0.25323 -176.35 98.592953
0.253508 132.6 98.617973
0.253787 113.22 99.008411
0.254065 324.74 98.606002
0.254344 216.03 98.623705
0.254623 261.42 98.988046
0.254901 128.94 98.891189
0.25518 149.38 100.2379
0.255458 334.28 100.57073
0.255737 399.39 101.65437
0.256015 185.49 102.25609
0.256294 188.37 102.88755
0.256573 151.77 102.96269
0.256851 161.42 102.49362
0.25713 155.74 103.7962
0.257408 209.45 104.36736
0.257687 126.07 105.27239
0.257965 278.75 104.1463
0.258244 139.04 104.60418
0.258523 186.73 105.19323
0.258801 228.16 105.16487
0.25908 225.29 105.53508
0.259358 192.74 105.3519
0.259637 104.79 106.49356
0.259915 47.03 105.70819
0.260194 356.72 106.46601
0.260473 282.27 106.1841
0.260751 152.96 106.39531
0.26103 99.57 107.49436
0.261308 260.98 107.4299
0.261587 3.71 107.08946
0.261865 151.85 105.85171
0.262144 10.18 105.06052
0.262423 254.42 104.91561
0.262701 244.13 103.3122
0.26298 120.11 104.07906
0.263258 251.25 102.70734
0.263537 172.03 102.9531
0.263815 205.37 102.65455
0.264094 251.63 101.71793
0.264373 120.35 103.02325
0.264651 46.45 101.31171
0.26493 214.38 101.67924
0.265208 125.89 101.35857
0.265487 276.73 101.72504
0.265765 251.75 102.1713
0.266044 100.59 101.08706
0.266323 52.74 101.3354
0.266601 140.7 100.85461
0.26688 270.32 100.48297
0.267158 183.63 101.0234
0.267437 159.38 100.47857
0.267715 30.87 100.30485
0.267994 122.15 100.5099
0.268273 223.38 99.418457
0.268551 169.17 100.2999
0.26883 154.99 98.584675
0.269108 192.94 99.644347
0.269387 374.38 99.052224
0.269665 225.27 98.773804
0.269944 135.5 99.281842
0.270223 333.78 98.505676
0.270501 -56.21 98.311158
0.27078 233.91 98.29958
0.271058 243.2 97.656941
0.271337 72.09 97.866504
0.271615 107.27 97.799249
0.271894 213.31 97.844892
0.272172 71.21 97.578436
0.272451 117.13 97.918223
0.27273 223.16 98.139788
0.273008 81.15 98.010949
0.273287 271.78 97.31205
0.273565 -18.47 97.797516
0.273844 75.58 97.69416
0.274122 -19.7 97.680692
0.274401 197.09 98.175995
0.27468 115.04 97.528569
0.274958 44.35 97.731624
0.275237 30.31 97.210515
0.275515 124.21 97.56061
0.275794 241.26 97.573288
0.276072 230.25 97.308863
0.276351 222.97 97.554681
0.27663 197.59 96.447352
0.276908 69.26 97.320234
0.277187 198.4 97.05828
0.277465 188.13 96.994821
0.277744 199.04 97.184474
0.278022 129.93 96.626
0.278301 135.25 96.918519
0.27858 175.87 97.274007
0.278858 51.61 96.589265
0.279137 33.41 96.985287
0.279415 247.71 96.773508
0.279694 294.79 96.978392
0.279972 -12.34 97.102144
0.280251 203.76 96.625224
0.28053 126.13 96.459273
0.280808 104.19 96.6952
0.281087 155.41 96.219609
0.281365 75.4 96.909986
0.281644 222.69 96.655362
0.281922 244.26 96.447094
0.282201 49.48 96.778199
0.28248 173.54 96.268825
0.282758 69.16 96.137619
0.283037 50.7 95.816674
0.283315 230.51 96.537343
0.283594 172.95 95.836216
0.283872 150.9 96.157318
0.284151 294.34 95.727273
0.28443 180.24 95.771168
0.284708 225.92 95.696765
0.284987 144.61 95.488749
0.285265 132.4 95.651157
0.285544 99.38 95.211079
0.285822 2.75 95.803593
0.286101 193.25 95.615686
0.28638 169.43 95.297107
0.286658 -73.94 95.471931
0.286937 64.81 95.43603
0.287215 168.64 95.270542
0.287494 56.2 95.267452
0.287772 209.53 95.608511
0.288051 -27.27 95.481085
0.28833 85.94 95.44678
0.288608 230.23 95.085301
0.288887 146.5 95.157117
0.289165 169.46 94.905848
0.289444 351.46 94.834246
0.289722 228.9 94.510137
0.290001 9.97 94.799369
0.29028 -13.53 94.372186
0.290558 105.49 95.258015
0.290837 274.76 94.569444
0.291115 39.9 94.46859
0.291394 186.08 94.896977
0.291672 72.7 94.550505
0.291951 53.92 94.806749
0.29223 140.21 93.954542
0.292508 74.47 94.354753
0.292787 -64.11 94.422612
0.293065 72.24 94.38734
0.293344 7.93 94.563274
0.293622 92.83 93.74258
0.293901 196.89 94.399817
0.29418 19.11 94.333684
0.294458 124.78 93.850249
0.294737 203.34 93.793517
0.295015 241.49 94.313501
0.295294 252.18 94.041875
0.295572 198.3 93.951619
0.295851 48.7 93.239327
0.29613 148.2 94.009959
0.296408 56.91 93.633421
0.296687 53.24 93.604847
0.296965 -43.11 93.918785
0.297244 115.46 93.220938
0.297522 142.1 94.034959
0.297801 53.66 93.585196
0.29808 18.15 93.791564
0.298358 -72.21 93.656615
0.298637 255.03 94.017282
0.298915 90.34 93.312847
0.299194 30.26 93.225666
0.299472 88.84 93.089656
0.299751 128.53 93.686685
0.30003 58.43 93.236334
0.300308 7.69 93.235817
0.300587 149.61 93.06483
0.300865 27.99 93.368077
0.301144 191.37 93.174346
0.301422 222.65 92.846252
0.301701 145.84 93.169434
0.30198 174.25 93.302906
0.302258 131.31 92.751106
0.302537 157.17 93.097576
0.302815 -31.03 92.39351
0.303094 184.25 92.54122
0.303372 91.01 93.257021
0.303651 208.63 92.528839
0.30393 131.28 92.702026
0.304208 127.36 92.448096
0.304487 71.05 91.847865
0.304765 174.15 92.840749
0.305044 79.53 92.338092
0.305322 204.63 92.543407
0.305601 189.15 92.176727
0.30588 89.19 92.085762
0.306158 58.9 91.962845
0.306437 296.85 91.848992
0.306715 -133.91 92.263293
0.306994 139.84 92.059516
0.307272 -54.93 91.733993
0.307551 214.96 92.36952
0.30783 66.22 92.075789
0.308108 201.2 92.485956
0.308387 14.57 92.036668
0.308665 106.45 91.964346
0.308944 53.84 92.200813
0.309222 105.66 92.119573
0.309501 102.16 91.978914
0.309779 97.16 92.386164
0.310058 132.58 92.150918
0.310337 186.4 92.097328
0.310615 206.31 91.417825
0.310894 -147.76 92.107403
0.311172 28.47 91.783426
0.311451 -8.8 91.80238
0.311729 -51.03 91.98886
0.312008 48.92 91.858352
0.312287 42.85 91.876086
0.312565 160.39 91.359155
0.312844 103.67 91.936708
0.313122 -36.34 91.503838
0.313401 97.82 91.779253
0.313679 -72.72 91.498428
0.313958 218.69 91.593016
0.314237 51.7 92.167637
0.314515 -40.42 93.474188
0.314794 163.18 94.284267
0.315072 58.69 94.354241
0.315351 75.99 94.791478
0.315629 -14.73 95.581922
0.315908 166.63 95.682243
0.316187 34.99 95.884494
0.316465 32.94 95.806369
0.316744 85.28 97.153014
0.317022 147.98 96.87116
0.317301 143.72 96.890459
0.317579 243.41 97.229419
0.317858 23.06 97.37143
0.318137 13.27 98.507558
0.318415 14.42 97.366284
0.318694 160.22 98.678031
0.318972 263.04 98.108804
0.319251 162.6 98.501339
0.319529 -98.43 99.12822
0.319808 47.73 98.677413
0.320087 70.51 100.19327
0.320365 43.91 99.591706
0.320644 274.86 100.16612
0.320922 117.19 98.854413
0.321201 249.12 96.986001
0.321479 32.36 97.432881
0.321758 204.51 96.53501
0.322037 210.13 96.210455
0.322315 234.92 96.248641
0.322594 23.07 95.074763
0.322872 132.8 96.308389
0.323151 72.08 95.015291
0.323429 142.75 94.916927
0.323708 125.65 95.365908
0.323987 73.91 94.566703
0.324265 243.64 94.514585
0.324544 67.89 95.258421
0.324822 -32.75 94.460978
0.325101 -29.83 93.872186
0.325379 265.49 94.068062
0.325658 -114.67 93.950986
0.325937 -36.32 94.184396
0.326215 219.73 93.545634
0.326494 102.47 93.770168
0.326772 154.63 93.782618
0.327051 209.31 93.421003
0.327329 -19.52 93.63272
0.327608 84.78 92.865808
0.327887 -28.17 93.244095
0.328165 117.51 92.622135
0.328444 303.76 92.494651
0.328722 -67.71 92.573751
0.329001 207.66 92.25124
0.329279 143.44 92.358117
0.329558 54.17 92.900239
0.329837 128.36 92.180373
0.330115 67.11 92.404029
0.330394 54 92.018582
0.330672 -75.57 92.333123
0.330951 148.18 92.241026
0.331229 146.22 91.767759
0.331508 148.86 92.254746
0.331787 68.45 91.742388
0.332065 30.02 91.800255
0.332344 130.63 91.729
0.332622 -14.05 91.132947
0.332901 117.62 92.46034
0.333179 11.07 91.23712
0.333458 93.03 91.573768
0.333737 59.77 91.467483
0.334015 -34.2 91.721239
0.334294 272.24 92.346913
0.334572 66.19 91.343699
0.334851 189.35 91.764914
0.335129 -22.73 91.83996
0.335408 63.21 91.029643
0.335687 62.8 91.997099
0.335965 49.72 91.224766
0.336244 83.85 91.583094
0.336522 157.36 91.504118
0.336801 220.33 91.017543
0.337079 233.98 91.396622
0.337358 48.21 91.069863
0.337637 108.07 91.312367
0.337915 -9.66 91.227452
0.338194 247.49 90.624505
0.338472 112.73 90.853966
0.338751 41.7 91.059744
0.339029 129.5 90.968989
0.339308 116.14 90.798894
0.339587 87.43 90.675041
0.339865 53.82 90.766569
0.340144 242.94 90.490383
0.340422 239.02 90.56476
0.340701 -65.56 90.2853
0.340979 241.46 90.955614
0.341258 49.97 90.056017
0.341537 48.66 89.686568
0.341815 27.67 90.112618
0.342094 214.21 90.238662
0.342372 83.62 90.079011
0.342651 113.74 89.767705
0.342929 85.63 89.483614
0.343208 20.23 89.982684
0.343487 51.99 90.116456
0.343765 327.65 89.848366
0.344044 107.77 89.24535
0.344322 15.48 89.730682
0.344601 -8.55 89.464276
0.344879 -29.87 89.604914
0.345158 37.6 89.255498
0.345436 42.23 89.142524
0.345715 132.29 89.770926
0.345994 -76.78 88.881702
0.346272 -111.43 89.257738
0.346551 145.83 89.124469
0.346829 -19.65 88.927282
0.347108 46.74 89.589048
0.347386 -19.4 88.9013
0.347665 5.93 89.316109
0.347944 45.04 88.843012
0.348222 58.91 88.783004
0.348501 160.39 89.182188
0.348779 97.4 88.647933
0.349058 -34.85 89.155501
0.349336 179.48 89.570909
0.349615 38.03 88.710275
0.349894 209.65 89.484653
0.350172 185.7 88.927158
0.350451 29.95 89.452376
0.350729 129.34 89.049107
0.351008 3.17 88.743973
0.351286 -31.54 88.976687
0.351565 -66.13 88.367439
0.351844 -32.79 89.499242
0.352122 -5.61 88.66592
0.352401 7.32 88.885213
0.352679 108.32 88.993401
0.352958 10.18 88.714647
0.353236 104.92 89.013113
0.353515 -213.07 88.752861
0.353794 212.5 89.014286
0.354072 100.57 89.087859
0.354351 31.97 88.915171
0.354629 41.19 88.583112
0.354908 104.55 89.284047
0.355186 33.87 88.813291
0.355465 -13.14 88.810946
0.355744 41.72 88.900328
0.356022 16.91 88.466897
0.356301 140.77 88.945591
0.356579 17.87 88.502728
0.356858 132.52 89.047558
0.357136 -11.86 88.852255
0.357415 253.67 88.745496
0.357694 -35.39 89.005832
0.357972 -5.62 88.459616
0.358251 -47.43 88.506168
0.358529 127.96 89.197205
0.358808 37.16 88.549409
0.359086 67.71 88.858553
0.359365 1.22 88.433146
0.359644 88.73 88.960189
0.359922 79.66 88.665668
0.360201 28.97 88.416547
0.360479 18.79 88.808678
0.360758 -77.1 88.676363
0.361036 82.6 88.708999
0.361315 207.58 88.854062
0.361594 121.91 88.445339
0.361872 -40.08 89.015998
0.362151 -9.67 88.770402
0.362429 -16.42 88.318626
0.362708 218.03 88.535846
0.362986 74.74 88.430502
0.363265 -27.98 88.866299
0.363544 22.93 88.741845
0.363822 44.09 88.277331
0.364101 181.4 88.425857
0.364379 81.18 88.200475
0.364658 30.25 88.925048
0.364936 123.54 88.357201
0.365215 0.1 88.220441
0.365494 75.19 88.425198
0.365772 161.77 88.484471
0.366051 -28.66 88.403973
0.366329 27.9 87.984096
0.366608 122.8 88.202535
0.366886 4.08 88.388123
0.367165 -22.8 88.144521
0.367444 46.91 88.278384
0.367722 170.45 88.114078
0.368001 102.73 88.123277
0.368279 126.59 88.700537
0.368558 201.78 88.297768
0.368836 188.08 88.614276
0.369115 276.9 88.410785
0.369394 103.71 88.702102
0.369672 164.6 88.513546
0.369951 83.01 88.630458
0.370229 97.46 88.618156
0.370508 136.9 88.707105
0.370786 130.43 88.991614
0.371065 59.77 88.520378
0.371344 30.11 88.502334
0.371622 82.99 88.5553
0.371901 74.07 88.707714
0.372179 36.45 88.097786
0.372458 52.23 88.448797
0.372736 119.69 88.888889
0.373015 98.82 88.493551
0.373294 214.44 89.644917
0.373572 91.5 90.449452
0.373851 214.16 91.071194
0.374129 139.44 91.265993
0.374408 185.99 92.303718
0.374686 -79.71 92.917295
0.374965 54.89 92.165256
0.375244 81.52 93.961593
0.375522 214.16 93.461046
0.375801 205.78 93.760056
0.376079 87.94 93.920889
0.376358 195.44 93.782134
0.376636 -34.13 94.498683
0.376915 129.23 94.051492
0.377194 52 94.592056
0.377472 286.37 95.151474
0.377751 30.34 94.88746
0.378029 146.07 95.950905
0.378308 22.16 95.495345
0.378586 36.41 96.032772
0.378865 32.66 96.810805
0.379144 -75.59 96.318788
0.379422 106.46 96.723625
0.379701 165.86 96.473266
0.379979 57.67 96.1631
0.380258 165.11 94.861251
0.380536 103.48 93.610968
0.380815 199.32 93.783105
0.381093 12.68 93.885095
0.381372 74.1 93.551629
0.381651 64.68 93.056845
0.381929 110.14 92.72984
0.382208 136 92.392355
0.382486 297.47 92.981238
0.382765 165.69 92.28573
0.383043 -65.2 92.573898
0.383322 127.33 92.325568
0.383601 41.95 92.080588
0.383879 188.98 92.463355
0.384158 124.41 91.910003
0.384436 173.78 91.847979
0.384715 188.79 92.207074
0.384993 12.87 90.957953
0.385272 178.42 91.314334
0.385551 208.16 91.203641
0.385829 127.22 91.238776
0.386108 138.88 91.664226
0.386386 114.12 90.627437
0.386665 99.36 91.482425
0.386943 103.21 90.60149
0.387222 86.44 91.04744
0.387501 165.08 91.060635
0.387779 143.54 90.650272
0.388058 120.56 91.39295
0.388336 308.1 90.904653
0.388615 105.59 91.05767
0.388893 75.77 90.704128
0.389172 126.42 90.138535
0.389451 113.81 91.323296
0.389729 140.3 89.918975
0.390008 -0.04 90.542612
0.390286 111.07 90.25175
0.390565 157.15 89.846117
0.390843 147.94 90.806701
0.391122 145.18 89.854851
0.391401 40.17 90.427454
0.391679 69.77 90.116513
0.391958 -64.25 89.564875
0.392236 116.26 90.153134
0.392515 210.62 89.805915
0.392793 140.73 90.053081
0.393072 183.88 89.986575
0.393351 154.23 89.360298
0.393629 110.9 90.018311
0.393908 89.3 89.255167
0.394186 90.89 90.324233
0.394465 89.77 89.547422
0.394743 71.27 89.772984
0.395022 139.68 89.767038
0.395301 136.57 89.745426
0.395579 213.56 90.095992
0.395858 -60.02 89.512187
0.396136 -19.31 90.470729
0.396415 34.57 90.53923
0.396693 -44.52 89.564963
0.396972 -13 90.004182
0.397251 91.73 90.144307
0.397529 209.33 90.187047
0.397808 172.89 90.264562
0.398086 43.93 90.091072
0.398365 250.87 90.637526
0.398643 -156.55 89.77775
0.398922 89.49 90.122268
0.399201 102.86 90.616421
0.399479 21.46 89.936157
0.399758 120.06 90.35166
0.400036 129.18 90.362722
0.400315 14.24 90.26027
0.400593 -53.68 90.150103
0.400872 187.35 90.280699
0.401151 151.43 90.227335
0.401429 49.09 90.209074
0.401708 -34.85 89.915365
0.401986 -82.98 90.514488
0.402265 104.83 90.544536
0.402543 35.44 90.192893
0.402822 146.84 90.275225
0.403101 60.47 90.234492
0.403379 265.52 90.534194
0.403658 153.54 90.834186
0.403936 7.56 90.103693
0.404215 92.67 90.77821
0.404493 -4.22 90.413191
0.404772 19.56 89.915614
0.405051 208.24 90.945318
0.405329 101.25 89.899616
0.405608 138.85 91.023576
0.405886 106.46 90.164266
0.406165 63.95 90.544357
0.406443 -5.11 90.485993
0.406722 -67.42 90.383621
0.407001 -72.75 91.078945
0.407279 88.93 90.441466
0.407558 34.15 90.646484
0.407836 282.77 90.535111
0.408115 63.99 90.420648
0.408393 39.47 90.850869
0.408672 130.84 90.335147
0.408951 152.13 90.989978
0.409229 107.83 90.281014
0.409508 40 90.183496
0.409786 41.6 90.561483
0.410065 9.46 89.864861
0.410343 171.99 90.750548
0.410622 207.79 90.553283
0.410901 148.32 90.237634
0.411179 54.42 90.256598
0.411458 210.91 90.166552
0.411736 -79.26 90.139546
0.412015 127.86 90.498583
0.412293 64.35 90.487874
0.412572 220.7 90.52262
0.412851 188.71 90.35716
0.413129 132.41 89.662365
0.413408 -32.71 90.201945
0.413686 144.11 90.124778
0.413965 -66.19 90.057688
0.414243 -24.33 90.716763
0.414522 -17.54 90.055613
0.414801 23.1 90.248573
0.415079 170.73 90.466797
0.415358 52.82 90.224898
0.415636 -10.63 90.281114
0.415915 54.28 89.940272
0.416193 240.8 90.027774
0.416472 76.86 90.024411
0.416751 207.78 89.813614
0.417029 40.69 90.702582
0.417308 122.51 89.720505
0.417586 211.95 89.932618
0.417865 3.13 89.898424
0.418143 136.09 89.636563
0.418422 -30.34 90.374368
0.4187 129.87 89.637359
0.418979 171.63 90.258906
0.419258 145.03 89.639851
0.419536 107.99 89.403901
0.419815 -15.48 89.944425
0.420093 30.22 89.570857
0.420372 111.59 89.838285
0.42065 82.89 89.772656
0.420929 45.02 89.705613
0.421208 91.98 90.198376
0.421486 224.8 89.862702
0.421765 82.43 89.877559
0.422043 -7.36 90.160425
0.422322 76.04 90.413781
0.4226 75.6 90.324319
0.422879 111.39 90.363784
0.423158 89.26 90.524459
0.423436 209.18 90.461144
0.423715 80.94 90.299457
0.423993 31.28 90.433134
0.424272 120.62 90.611471
0.42455 202.65 90.155105
0.424829 115.66 90.537364
0.425108 211.58 90.578954
0.425386 57.98 90.53987
0.425665 13.49 90.503117
0.425943 141.32 90.215733
0.426222 114.72 90.258392
0.4265 6.08 90.265912
0.426779 -148.74 90.611254
0.427058 68.68 90.698381
0.427336 -32.79 90.373185
0.427615 195.55 90.873297
0.427893 75.31 90.256682
0.428172 190.61 90.467543
0.42845 119.94 91.240331
0.428729 128.04 90.309526
0.429008 114.2 90.83723
0.429286 133.6 90.328548
0.429565 49.62 90.576509
0.429843 184.57 90.231748
0.430122 269.93 90.272701
0.4304 207.46 90.790545
0.430679 48.1 90.195703
0.430958 215.45 90.63139
0.431236 22.75 90.037059
0.431515 97.79 90.74462
0.431793 -15.28 90.8245
0.432072 28.18 90.020198
0.43235 192.27 92.142935
0.432629 206.87 93.182988
0.432908 181.31 93.606533
0.433186 37.44 95.123445
0.433465 65.08 94.641407
0.433743 -47.57 96.136104
0.434022 137.64 95.926929
0.4343 185.92 96.5061
0.434579 -47.06 97.193719
0.434858 140.14 96.402671
0.435136 228.92 97.689737
0.435415 197.16 97.823831
0.435693 157.8 98.012913
0.435972 69.18 99.243925
0.43625 289.62 98.718627
0.436529 279.67 99.390939
0.436808 117.15 99.999235
0.437086 141.27 99.682343
0.437365 228.7 100.38767
0.437643 176.8 99.896006
0.437922 129.77 100.89123
0.4382 79.84 100.99631
0.438479 44.28 101.77831
0.438758 124.45 102.41774
0.439036 180.41 99.770218
0.439315 198.04 99.309403
0.439593 -72.95 98.3438
0.439872 154.58 97.940024
0.44015 155.5 97.612776
0.440429 146.75 96.63438
0.440708 112.26 96.715222
0.440986 67.91 96.600391
0.441265 88.64 96.837588
0.441543 -115.24 96.499445
0.441822 72.68 96.316107
0.4421 230.82 95.84126
0.442379 103.83 95.792334
0.442658 98.19 95.556656
0.442936 214.3 95.592984
0.443215 122.26 95.843335
0.443493 -42.52 95.259544
0.443772 105.67 95.314957
0.44405 54.74 95.092729
0.444329 141.26 95.390184
0.444608 -52.6 94.913312
0.444886 61.34 95.387446
0.445165 62.03 95.080496
0.445443 92.76 95.060394
0.445722 132.48 94.924584
0.446 106.85 95.544475
0.446279 -66.41 94.807933
0.446558 -15.5 95.200352
0.446836 -4.61 94.967445
0.447115 56.17 94.630371
0.447393 -191.47 94.970483
0.447672 102.15 94.459051
0.44795 -11.68 94.521094
0.448229 84.75 94.443194
0.448508 -4.58 94.000639
0.448786 167.24 93.95217
0.449065 54.5 94.209396
0.449343 -64.14 93.544727
0.449622 119.2 94.133749
0.4499 216.03 93.848356
0.450179 -54.54 94.185676
0.450458 269.93 93.614807
0.450736 -44.5 93.848632
0.451015 113.98 93.543031
0.451293 -11.26 93.94476
0.451572 -48.84 93.513265
0.45185 132.52 93.24733
0.452129 88.41 93.237224
0.452408 54.78 93.318449
0.452686 223.31 93.710663
0.452965 28.27 92.889792
0.453243 160.42 93.975914
0.453522 105.37 93.352952
0.4538 239.98 93.126893
0.454079 44.6 93.630871
0.454357 157.11 93.362504
0.454636 82.49 93.502652
0.454915 168.17 93.666728
0.455193 -8.63 92.902141
0.455472 -15.16 93.453597
0.45575 231.3 93.209378
0.456029 195.71 93.622301
0.456307 9.36 93.340777
0.456586 70.25 92.821259
0.456865 65.77 93.081785
0.457143 148.19 92.944325
0.457422 -43.81 93.384305
0.4577 212.98 93.072773
0.457979 -13.19 93.232554
0.458257 206.41 93.485097
0.458536 142.09 93.022137
0.458815 76.98 93.312114
0.459093 168.9 93.099869
0.459372 238.3 92.847441
0.45965 111.04 93.192532
0.459929 89.69 93.203693
0.460207 210.13 93.319676
0.460486 93.88 92.625876
0.460765 -47.06 93.285404
0.461043 315.81 93.287222
0.461322 172.31 93.09407
0.4616 20.69 93.608099
0.461879 114.27 92.918137
0.462157 83.93 93.175986
0.462436 -69.16 92.874485
0.462715 -92.21 92.950731
0.462993 242.92 93.232145
0.463272 11.03 93.031008
0.46355 150.66 93.284055
0.463829 53.27 92.769785
0.464107 123.45 93.32552
0.464386 62.53 93.772052
0.464665 72.5 92.529063
0.464943 98.45 93.468922
0.465222 57.5 92.582883
0.4655 104.2 93.132396
0.465779 227.14 93.057962
0.466057 168.28 92.851461
0.466336 80.77 93.171632
0.466615 53.12 93.11995
0.466893 -78.25 93.991017
0.467172 62.17 93.159107
0.46745 116.75 92.773759
0.467729 27.77 93.367463
0.468007 94.94 93.016829
0.468286 128.52 92.909521
0.468565 94.63 93.303815
0.468843 167.14 92.920132
0.469122 121.59 92.94604
0.4694 121.74 92.617003
0.469679 -14.75 93.141444
0.469957 128.63 92.514608
0.470236 162.14 93.058323
0.470515 -222.75 92.538829
0.470793 78.73 92.932044
0.471072 109.34 93.058247
0.47135 45.27 92.809072
0.471629 22.07 93.061436
0.471907 37.15 92.868736
0.472186 139.83 92.723516
0.472465 82.41 92.787655
0.472743 120.33 93.26692
0.473022 79.15 92.786861
0.4733 92.03 92.673041
0.473579 2.42 92.83832
0.473857 130.4 93.045355
0.474136 2.46 92.792955
0.474415 81 92.852595
0.474693 14.84 92.392502
0.474972 119.57 93.280196
0.47525 60.31 92.947069
0.475529 263.57 93.24639
0.475807 -53.28 93.198342
0.476086 -74.06 92.554128
0.476365 73.59 93.636236
0.476643 -47.73 93.006936
0.476922 126.57 93.520992
0.4772 147.52 93.502905
0.477479 107.15 93.190544
0.477757 176.44 93.022847
0.478036 87.02 93.01852
0.478315 170.2 93.54745
0.478593 13.12 93.059389
0.478872 55.35 93.476986
0.47915 12.24 93.678161
0.479429 103.5 92.881232
0.479707 34.29 93.735255
0.479986 -15.43 92.702329
0.480265 165.38 93.208977
0.480543 116.52 93.49632
0.480822 183.63 93.537492
0.4811 98.38 93.615766
0.481379 26.34 93.091466
0.481657 -71.08 93.081798
0.481936 93.75 93.138553
0.482215 88.61 93.469925
0.482493 78.25 93.38672
0.482772 240.5 93.028993
0.48305 31.6 93.594221
0.483329 217.73 93.460315
0.483607 29.42 92.79668
0.483886 188.78 93.299791
0.484165 111.75 92.828863
0.484443 -36.31 93.211357
0.484722 -7.34 92.546137
0.485 52.23 92.84816
0.485279 122.49 92.962793
0.485557 144.48 92.864521
0.485836 -64.36 93.392935
0.486115 143.61 92.558103
0.486393 136.06 93.150268
0.486672 126.17 92.782218
0.48695 160.06 92.877967
0.487229 5.86 92.877897
0.487507 -40.74 92.453258
0.487786 120.59 93.155984
0.488065 12.6 92.521952
0.488343 218.47 92.778126
0.488622 137.7 92.539601
0.4889 -44.14 92.8099
0.489179 -79.14 92.758617
0.489457 249.36 92.246887
0.489736 106.54 93.494921
0.490014 66.27 92.265992
0.490293 -27.74 92.939085
0.490572 200.04 92.868987
0.49085 259.15 92.011233
0.491129 33.31 92.52666
0.491407 84.74 93.822886
0.491686 48.79 95.469905
0.491964 113.79 96.367941
0.492243 225.36 96.289485
0.492522 136.69 97.672743
0.4928 70.08 97.860088
0.493079 249.56 98.413976
0.493357 178.75 98.704145
0.493636 -48.47 98.890704
0.493914 -55.26 99.745287
0.494193 107.74 99.435828
0.494472 -9.97 100.78442
0.49475 89.28 100.86695
0.495029 -6.25 100.48147
0.495307 -40.37 101.89046
0.495586 59.74 100.62549
0.495864 127.13 102.59092
0.496143 49.59 102.48526
0.496422 105.86 103.0595
0.4967 127.77 103.68061
0.496979 63.04 103.52199
0.497257 121.65 104.25158
0.497536 238.43 104.30008
0.497814 -14.87 104.77359
0.498093 11.43 103.13602
0.498372 144.91 101.18083
0.49865 -73.07 101.39753
0.498929 80.23 99.937293
0.499207 -11.28 99.824808
0.499486 -12.82 99.665364
0.499764 55.11 99.170857
0.500043 -7.95 99.383651
0.500322 161.91 98.740466
0.5006 59.24 98.543673
0.500879 207.74 97.914854
0.501157 185.38 98.634245
0.501436 236.39 98.137495
0.501714 162.58 97.792006
0.501993 99.42 98.351421
0.502272 104.11 97.601793
0.50255 72.68 98.129743
0.502829 53.12 97.106216
0.503107 2.26 97.953562
0.503386 9.72 98.198527
0.503664 94.19 96.862765
0.503943 117.45 98.070572
0.504222 205.18 96.0112
0.5045 39.02 97.668609
0.504779 54.38 96.972922
0.505057 150.95 97.410794
0.505336 242.37 97.143439
0.505614 61.89 96.215679
0.505893 -81.55 96.942245
0.506172 116.76 96.89711
0.50645 115.22 96.892049
0.506729 114.27 97.040256
0.507007 176.4 96.659849
0.507286 110.62 97.249344
0.507564 37.99 96.43193
0.507843 277.52 97.28768
0.508122 124.76 97.541131
0.5084 249.67 96.438061
0.508679 133.26 96.934801
0.508957 37.45 96.109222
0.509236 26.47 96.566905
0.509514 125.18 96.45087
0.509793 -21.12 96.600968
0.510072 186.29 96.442104
0.51035 136.89 96.138051
0.510629 70.95 96.664606
0.510907 163.95 96.403639
0.511186 162.5 96.292191
0.511464 136.01 96.72366
0.511743 146.69 96.376699
0.512022 60.9 96.861355
0.5123 175.15 96.170685
0.512579 195.22 96.555551
0.512857 71.12 96.322216
0.513136 163.15 96.272349
0.513414 97.64 96.694497
0.513693 156.52 95.907003
0.513972 -15.1 96.470409
0.51425 199.86 95.744257
0.514529 65.04 96.146899
0.514807 177.5 96.022142
0.515086 39.75 96.582322
0.515364 246.53 96.274572
0.515643 0.42 95.589246
0.515922 -26.03 96.196454
0.5162 98.64 95.932768
0.516479 110.78 96.117398
0.516757 132.97 95.876874
0.517036 41.14 95.768784
0.517314 148.08 96.029405
0.517593 266.14 95.873783
0.517872 74.93 96.068445
0.51815 164.59 96.502328
0.518429 10.8 95.716808
0.518707 -46.13 96.269607
0.518986 200.04 95.62635
0.519264 3.05 96.321099
0.519543 193.7 95.847595
0.519822 178.83 96.092799
0.5201 34.06 95.932691
0.520379 107.41 95.277467
0.520657 -99.8 96.155546
0.520936 66.08 96.232202
0.521214 69.74 95.875761
0.521493 167.63 95.251129
0.521772 334.55 95.821201
0.52205 108.25 95.876799
0.522329 159.19 96.35637
0.522607 201.96 95.476958
0.522886 -5.48 95.992961
0.523164 15.81 95.909393
0.523443 61.59 95.723867
0.523722 166.29 95.348959
0.524 31.65 95.641866
0.524279 30.41 95.756327
0.524557 154.91 95.307832
0.524836 111.9 94.995687
0.525114 120.73 95.187403
0.525393 302.41 95.576505
0.525671 110.14 95.085756
0.52595 61.75 95.127276
0.526229 43.62 94.895805
0.526507 190.69 94.815402
0.526786 27.88 95.073717
0.527064 148.46 95.229922
0.527343 87.27 94.830072
0.527621 19.61 94.878086
0.5279 262.57 95.200296
0.528179 187.11 94.895892
0.528457 193.6 94.714299
0.528736 189.79 95.19703
0.529014 69.7 94.650791
0.529293 64.62 95.384535
0.529571 -14.17 94.989758
0.52985 114.8 95.048461
0.530129 35.42 94.965397
0.530407 237.37 95.109268
0.530686 121.15 95.583161
0.530964 226.37 95.329395
0.531243 128.95 94.925972
0.531521 173.19 95.086191
0.5318 16.37 94.857815
0.532079 230.85 95.175288
0.532357 120.51 94.959573
0.532636 32.15 94.585628
0.532914 -64.23 95.48116
0.533193 193.19 95.039916
0.533471 176.52 94.695831
0.53375 178.93 94.847341
0.534029 200.9 95.414978
0.534307 148.97 95.186992
0.534586 9.32 95.284665
0.534864 97.69 94.963859
0.535143 39.57 94.862244
0.535421 259.53 94.890155
0.5357 110.96 95.554875
0.535979 64.51 95.169743
0.536257 210.28 95.332477
0.536536 85.4 95.638167
0.536814 -61.73 94.810157
0.537093 40.39 95.080739
0.537371 60.4 94.846387
0.53765 -73.52 95.169477
0.537929 50.98 94.504949
0.538207 245.42 95.064598
0.538486 197.73 94.597009
0.538764 263.38 95.044719
0.539043 -55.63 94.367795
0.539321 112.68 94.71481
0.5396 122.97 94.742067
0.539879 104.44 95.073261
0.540157 201.29 94.521317
0.540436 37.6 94.723091
0.540714 219.15 94.68591
0.540993 8.75 94.398734
0.541271 -0.43 94.892239
0.54155 206.39 94.676152
0.541829 126.45 94.242505
0.542107 279.38 94.272102
0.542386 115.08 94.529519
0.542664 130.3 94.582162
0.542943 139.04 94.100629
0.543221 28.09 94.382999
0.5435 169.54 94.509619
0.543779 215.5 93.829222
0.544057 0.97 94.157648
0.544336 -81.48 93.899844
0.544614 37.93 94.44571
0.544893 193.87 93.857846
0.545171 165.91 93.926369
0.54545 168.84 94.259581
0.545729 83.41 94.278242
0.546007 164.3 94.434184
0.546286 247.21 93.721346
0.546564 310.96 93.846436
0.546843 102.69 93.998242
0.547121 206.17 93.74218
0.5474 18.22 94.097174
0.547679 158.87 94.623103
0.547957 87.37 93.593054
0.548236 150.83 94.306465
0.548514 270.7 93.983667
0.548793 157.54 94.31001
0.549071 141.35 94.394656
0.54935 185.77 94.371996
0.549629 208.49 94.615905
0.549907 244.52 94.360715
0.550186 72.99 94.235129
0.550464 -146.74 96.392984
0.550743 125.07 97.896137
0.551021 58.83 99.059343
0.5513 12.81 99.316818
0.551579 167.14 100.21284
0.551857 72.53 101.00167
0.552136 182.13 101.11977
0.552414 280.23 101.58094
0.552693 123.18 101.72844
0.552971 291.66 102.37972
0.55325 -45.84 103.54744
0.553529 133.17 103.6536
0.553807 56.86 104.57047
0.554086 -10.33 104.81297
0.554364 164.6 105.41048
0.554643 157.86 105.69501
0.554921 114.58 105.5211
0.5552 -90.37 106.13575
0.555479 183.02 106.5679
0.555757 178.24 106.9688
0.556036 180.7 107.88015
0.556314 250.66 108.25972
0.556593 142.11 108.91825
0.556871 280.31 108.55451
0.55715 111.55 106.78037
0.557429 243.26 105.26337
0.557707 7.35 104.853
0.557986 186.47 103.44886
0.558264 -52.01 103.43473
0.558543 370.22 102.06388
0.558821 253.32 102.7001
0.5591 162.22 102.76052
0.559379 -28.18 102.21018
0.559657 -12.4 101.28552
0.559936 145.58 101.49293
0.560214 130.73 101.67288
0.560493 103.82 101.22825
0.560771 371.64 101.32605
0.56105 37.72 100.74301
0.561329 171.9 100.88938
0.561607 200.45 100.5225
0.561886 194.74 100.06333
0.562164 99.72 100.1256
0.562443 139.16 100.61582
0.562721 160.65 100.06991
0.563 131.14 100.28979
0.563278 -39.39 99.694802
0.563557 20.21 99.771572
0.563836 94.05 99.884111
0.564114 154.48 99.93045
0.564393 98.63 99.376211
0.564671 -21.95 99.808843
0.56495 80.78 99.320915
0.565228 82.74 100.00647
0.565507 195.37 99.73814
0.565786 111.21 99.440638
0.566064 118.43 99.574502
0.566343 226.68 99.57224
0.566621 160.3 99.978171
0.5669 191.32 99.342082
0.567178 159.86 99.735588
0.567457 130.44 99.578417
0.567736 19.65 98.69233
0.568014 185.17 99.208086
0.568293 109.51 98.614002
0.568571 -130.03 98.71567
0.56885 67.11 99.518899
0.569128 63 98.436253
0.569407 155.87 98.993437
0.569686 155.12 98.909329
0.569964 244.95 98.67357
0.570243 103.65 98.583649
0.570521 319.97 98.274599
0.5708 340.81 98.429647
0.571078 31.27 98.558695
0.571357 195.98 97.470261
0.571636 320.24 98.136034
0.571914 171.46 98.709256
0.572193 32.72 97.855209
0.572471 118.47 98.188339
0.57275 291.02 97.723793
0.573028 53.85 97.842303
0.573307 112.57 97.862793
0.573586 137.9 97.691591
0.573864 -34.8 98.139195
0.574143 67.65 97.75453
0.574421 -10.58 98.335034
0.5747 103.11 98.18206
0.574978 -67.8 97.507273
0.575257 131.7 98.721599
0.575536 -8.96 97.760077
0.575814 75.33 98.117276
0.576093 152.06 97.968701
0.576371 205.98 97.713211
0.57665 296.15 98.388424
0.576928 104.9 97.608025
0.577207 -5.09 97.746426
0.577486 218.16 97.85714
0.577764 158.06 97.88809
0.578043 44.18 97.668507
0.578321 60.5 97.575307
0.5786 139.3 97.427196
0.578878 162.55 97.981941
0.579157 96.67 97.73343
0.579436 213.31 97.80895
0.579714 71.69 97.295197
0.579993 222.6 97.473577
0.580271 58.28 97.384178
0.58055 197.86 96.985948
0.580828 181.38 97.107335
0.581107 -24.1 96.91118
0.581386 89.32 96.997591
0.581664 22.94 97.192416
0.581943 274.97 96.971489
0.582221 -35.1 97.589019
0.5825 180.01 97.263987
0.582778 223.68 97.353179
0.583057 193.8 97.485045
0.583336 -91.73 96.92368
0.583614 215.99 97.249347
0.583893 152.88 97.58346
0.584171 11.55 97.27025
0.58445 54.81 96.726809
0.584728 118.47 97.255378
0.585007 170.02 97.410516
0.585286 309.92 97.046948
0.585564 -21.92 97.045117
0.585843 -110.52 97.208097
0.586121 54.25 97.064737
0.5864 -38.89 97.324298
0.586678 84.21 96.858961
0.586957 81.92 97.408965
0.587236 213.53 97.119433
0.587514 -39.14 97.205054
0.587793 -5.22 96.871724
0.588071 179.72 97.08558
0.58835 -77.22 97.235948
0.588628 -132.94 96.963319
0.588907 100.9 96.685709
0.589186 -36.66 96.721456
0.589464 -30.97 96.995394
0.589743 164.15 96.677916
0.590021 131.61 96.838984
0.5903 65.23 96.142885
0.590578 -6.3 97.238357
0.590857 173.84 96.513569
0.591136 335.64 96.473317
0.591414 128.35 96.815353
0.591693 54.6 96.69977
0.591971 269.54 97.013404
0.59225 -32.61 96.627848
0.592528 -27.5 96.814602
0.592807 131.31 96.402735
0.593086 218.78 96.570008
0.593364 76.94 96.343694
0.593643 68.83 96.277247
0.593921 139.28 96.643246
0.5942 121.22 96.520393
0.594478 105 96.749676
0.594757 207.28 96.77821
0.595036 193.18 96.539261
0.595314 57.55 96.740518
0.595593 158.1 96.555041
0.595871 70.41 96.223698
0.59615 107.35 96.287793
0.596428 114.5 96.960898
0.596707 55.42 96.6547
0.596986 -88.43 96.132436
0.597264 100.78 95.93694
0.597543 75.35 96.172053
0.597821 152.1 96.201489
0.5981 217.52 96.152272
0.598378 110.35 96.318701
0.598657 210.58 95.820839
0.598935 92.48 96.514475
0.599214 39.82 96.317807
0.599493 238.69 96.249085
0.599771 134.81 96.163415
0.60005 2.74 96.627817
0.600328 205.32 96.245011
0.600607 148.46 96.210497
0.600885 174.63 96.148375
0.601164 263.36 96.204866
0.601443 -129.89 96.265851
0.601721 310.54 96.423388
0.602 83.67 96.356156
0.602278 145.72 96.666374
0.602557 60.52 96.521021
0.602835 192.34 96.65304
0.603114 59.48 96.564989
0.603393 142.76 96.475662
0.603671 61.04 96.600271
0.60395 116.68 96.098594
0.604228 118.57 96.647138
0.604507 149.08 96.530744
0.604785 144.5 96.899875
0.605064 244.24 96.694714
0.605343 217.95 96.541642
0.605621 39.76 96.492593
0.6059 192.97 96.564165
0.606178 123.59 96.582669
0.606457 114.15 96.522735
0.606735 211.2 96.795322
0.607014 136.97 96.482929
0.607293 157.43 97.282298
0.607571 127.34 96.622742
0.60785 243.59 96.623117
0.608128 76.68 96.751257
0.608407 5.54 96.898263
0.608685 19.13 96.75703
0.608964 119.42 96.719542
0.609243 -22.1 96.266215
0.609521 -6.71 98.586552
0.6098 283.36 100.05394
0.610078 203.53 101.43783
0.610357 15.29 101.54229
0.610635 67.31 102.77903
0.610914 104.6 103.52354
0.611193 76.97 104.225
0.611471 55.41 104.8685
0.61175 -0.55 105.17752
0.612028 214.64 105.94402
0.612307 29.56 106.45696
0.612585 -69.69 106.77104
0.612864 36.15 107.54444
0.613143 131.52 107.96496
0.613421 6.33 108.55662
0.6137 127.44 108.8781
0.613978 -85.69 108.88635
0.614257 240.84 108.87334
0.614535 206.38 109.90437
0.614814 172.71 110.54568
0.615093 146.65 110.8315
0.615371 45.07 111.6669
0.61565 -222.99 111.4394
0.615928 223.21 111.92577
0.616207 45.22 109.31798
0.616485 -35.1 107.70254
0.616764 182.54 107.18303
0.617043 245.36 105.58952
0.617321 125.12 104.8805
0.6176 67.38 104.86925
0.617878 142.89 104.83352
0.618157 -109.95 103.86066
0.618435 189.27 103.94901
0.618714 242.7 103.66911
0.618993 110.89 103.68596
0.619271 10.6 102.54789
0.61955 49.32 103.26744
0.619828 34.72 102.68732
0.620107 11.33 102.57872
0.620385 101.37 102.6745
0.620664 -51.28 102.26117
0.620943 50.8 102.07581
0.621221 148.23 102.23876
0.6215 159.61 102.31516
0.621778 114.55 101.96154
0.622057 25.21 101.02755
0.622335 128.57 102.23873
0.622614 148.44 101.69236
0.622893 106.18 101.17363
0.623171 329.27 102.12946
0.62345 115.96 101.89574
0.623728 93.28 101.6935
0.624007 126.88 101.56477
0.624285 -24.42 101.38434
0.624564 -49.18 101.28102
0.624843 97.67 101.33092
0.625121 99.51 101.2252
0.6254 114.73 101.54496
0.625678 56.03 101.01786
0.625957 169.65 101.21436
0.626235 42.96 101.51065
0.626514 -4.02 100.6079
0.626793 148.01 101.6592
0.627071 79.62 101.03054
0.62735 44.76 101.49267
0.627628 221.56 100.7667
0.627907 130.41 100.78934
0.628185 -60.49 101.13646
0.628464 220.86 101.11545
0.628743 148.13 100.80661
0.629021 228.5 100.95885
0.6293 182.12 100.74148
0.629578 182.84 101.02298
0.629857 87.78 100.88536
0.630135 173.67 101.01329
0.630414 209.95 100.4848
0.630693 181.85 100.45793
0.630971 46.19 100.91604
0.63125 196.98 100.14
0.631528 26.31 100.42578
0.631807 112.57 100.78746
0.632085 117.98 100.47562
0.632364 93.98 100.58831
0.632643 37.11 100.7571
0.632921 175.8 100.32385
0.6332 276.02 100.72011
0.633478 204.05 100.77424
0.633757 49.94 100.31487
0.634035 66.92 100.32085
0.634314 18.52 100.48743
0.634592 14.43 100.22996
0.634871 68.64 100.91003
0.63515 56.1 100.18715
0.635428 85.92 100.91745
0.635707 66.74 100.04413
0.635985 141.69 100.26085
0.636264 -45.99 99.467532
0.636542 80.22 99.769858
0.636821 103.24 100.16463
0.6371 89.33 99.638021
0.637378 11.04 99.678505
0.637657 203.89 99.821146
0.637935 -59.91 99.294421
0.638214 41.26 99.427933
0.638492 44.19 99.410987
0.638771 152.62 98.967979
0.63905 150.44 99.396353
0.639328 46.14 99.067518
0.639607 33.66 99.638823
0.639885 6.53 98.899658
0.640164 142.8 99.4055
0.640442 174.66 99.260636
0.640721 43.73 98.652043
0.641 163.72 98.661269
0.641278 228.82 99.379242
0.641557 63.16 99.023525
0.641835 113.88 98.608868
0.642114 198.74 99.209052
0.642392 -117.16 98.610522
0.642671 334.66 98.953292
0.64295 186.28 98.692091
0.643228 17.64 98.989185
0.643507 177.38 98.639262
0.643785 210.49 99.072658
0.644064 23.84 98.981647
0.644342 228.69 99.260672
0.644621 223.42 98.75373
0.6449 157.08 99.266593
0.645178 137.15 98.803612
0.645457 -16.47 98.850925
0.645735 141.27 98.797336
0.646014 53.92 99.054074
0.646292 -61.79 99.22725
0.646571 105.61 98.947493
0.64685 284.43 99.168063
0.647128 279.26 98.909227
0.647407 170.73 98.880325
0.647685 210.33 98.869693
0.647964 184.54 99.186648
0.648242 -1.07 99.014315
0.648521 145.73 99.172152
0.6488 198.4 98.740057
0.649078 128.11 98.932556
0.649357 -277.65 98.97689
0.649635 240.29 98.587484
0.649914 48.77 99.010371
0.650192 -6.31 98.950124
0.650471 14.06 98.756564
0.65075 -63.29 99.099688
0.651028 86.54 98.701098
0.651307 148.07 99.104478
0.651585 72.21 98.857131
0.651864 -16.14 98.987674
0.652142 1.15 98.965935
0.652421 -58.03 98.078705
0.6527 210.32 98.802212
0.652978 85.48 98.866448
0.653257 -67.31 98.29901
0.653535 279 98.498105
0.653814 114.67 98.841146
0.654092 104.1 98.490766
0.654371 112.04 99.096621
0.65465 60.49 98.39657
0.654928 34.16 98.926979
0.655207 150.07 98.219871
0.655485 -40.92 98.745716
0.655764 166.38 98.544934
0.656042 -49.08 98.242187
0.656321 136.98 98.677538
0.6566 132.45 98.614458
0.656878 -17.06 98.543219
0.657157 -53.02 98.684608
0.657435 342.88 98.489348
0.657714 -200.67 98.972005
0.657992 -131.42 99.144447
0.658271 142.41 98.908942
0.65855 -87.05 99.190149
0.658828 27.62 98.530217
0.659107 -67.17 99.058583
0.659385 49.89 99.103216
0.659664 91.94 99.202079
0.659942 39.31 99.151521
0.660221 -99.32 99.080274
0.6605 113.56 98.920847
0.660778 25.67 99.034166
0.661057 7.73 98.895431
0.661335 86.84 98.842529
0.661614 1.19 99.197538
0.661892 93.57 99.169772
0.662171 72.7 98.804425
0.66245 30.84 98.440745
0.662728 116.9 98.861702
0.663007 134.42 98.557558
0.663285 139.04 98.876007
0.663564 -116.58 98.265054
0.663842 177.5 98.672953
0.664121 104.18 98.42379
0.6644 210.26 99.024301
0.664678 49.77 98.28889
0.664957 15.78 98.59291
0.665235 267.4 98.654995
0.665514 94.39 98.200619
0.665792 86.41 97.920231
0.666071 60.89 98.330421
0.66635 195.43 98.593884
0.666628 71.91 98.174575
0.666907 212.79 98.275538
0.667185 95.79 97.89981
0.667464 -17.82 98.303039
0.667742 -44.76 97.923145
0.668021 223.42 98.130146
0.6683 7.84 98.202326
0.668578 144.28 100.32986
0.668857 172.38 102.17539
0.669135 217.44 102.94607
0.669414 43.76 104.15103
0.669692 -74.3 105.20963
0.669971 209.54 105.06223
0.67025 -39.29 105.97788
0.670528 198.02 106.01001
0.670807 87.7 107.63992
0.671085 32.6 108.22073
0.671364 121.86 109.25122
0.671642 59.08 109.32797
0.671921 187.38 109.64834
0.672199 123.36 111.0476
0.672478 249.78 110.99047
0.672757 221.44 111.3476
0.673035 68.16 112.63069
0.673314 303.97 113.43542
0.673592 200.92 113.25195
0.673871 -80.65 114.42441
0.674149 -12.99 113.7226
0.674428 -128.97 115.45311
0.674707 78.69 116.12125
0.674985 135.91 115.83703
0.675264 -42.67 116.28061
0.675542 164.94 116.83963
0.675821 272.81 117.87945
0.676099 148.59 117.311
0.676378 -77.14 117.9408
0.676657 222.86 119.51017
0.676935 181.51 119.62874
0.677214 7.99 119.73782
0.677492 263.77 120.21082
0.677771 57.31 120.53242
0.678049 92.08 122.24663
0.678328 -45.06 121.92383
0.678607 281.7 122.62354
0.678885 226.07 123.28538
0.679164 145.78 123.82709
0.679442 192.33 123.3911
0.679721 -128.65 125.08456
0.679999 123.06 125.13491
0.680278 4.35 125.74117
0.680557 -77.26 126.20161
0.680835 156.89 127.64294
0.681114 -24.45 128.07038
0.681392 259.18 127.14176
0.681671 21.16 128.01209
0.681949 121.53 129.24409
0.682228 320.22 128.58637
0.682507 -181.48 129.93812
0.682785 57.48 129.21771
0.683064 -61.15 130.11776
0.683342 292.81 130.55476
0.683621 32.12 130.30852
0.683899 -36.36 130.67134
0.684178 268.05 131.35177
0.684457 -82.06 132.01819
0.684735 -147.34 132.2389
0.685014 17.57 132.21508
0.685292 -5.4 132.94238
0.685571 303.15 132.90949
0.685849 247.9 134.61528
0.686128 238.79 134.79638
0.686407 151.98 135.00322
0.686685 -61.76 136.74603
0.686964 143.94 137.22229
0.687242 94.18 136.07025
0.687521 296.59 138.05027
0.687799 58.27 139.22975
0.688078 143.87 138.59695
0.688357 4.07 139.23101
0.688635 219.48 139.38377
0.688914 52.88 140.61077
0.689192 72.85 142.335
0.689471 -133.49 141.20232
0.689749 79.91 143.54543
0.690028 43.36 142.72436
0.690307 152.86 144.21965
0.690585 161.22 144.23988
0.690864 -5.16 145.30035
0.691142 297.65 147.39763
0.691421 101.03 146.68102
0.691699 128.55 147.66789
0.691978 130.34 148.39321
0.692257 227.14 148.71821
0.692535 66.6 148.76594
0.692814 -142.21 150.38742
0.693092 33.95 148.32373
0.693371 89.1 151.14719
0.693649 123.85 149.72411
0.693928 52 152.59444
0.694207 -127.49 151.08414
0.694485 -42.47 153.33035
0.694764 -5.71 153.89499
0.695042 82.08 154.73408
0.695321 -3.15 155.29032
0.695599 318.37 157.21412
0.695878 165.91 156.07461
0.696157 272.19 159.24426
0.696435 300.34 157.57077
0.696714 136.75 157.866
0.696992 285.48 160.95665
0.697271 2.01 160.51104
0.697549 -85.87 162.23166
0.697828 368.86 161.91617
0.698107 24.13 162.48945
0.698385 356.48 164.74732
0.698664 -43.95 166.27908
0.698942 -66.8 164.98044
0.699221 -70.77 167.07302
0.699499 134.62 167.67637
0.699778 -216.38 170.04638
0.700057 -346.81 169.33384
0.700335 233.04 169.51958
0.700614 -141.43 173.5611
0.700892 124.66 172.1959
0.701171 102.3 174.25779
0.701449 81.4 175.86334
0.701728 -16.46 175.79539
0.702007 295.66 179.65474
0.702285 9.78 179.81199
0.702564 -69.17 181.62463
0.702842 -255.22 181.829
0.703121 307.81 183.36038
0.703399 -194 185.63597
0.703678 42.91 184.38308
0.703957 267.8 187.37905
0.704235 137.14 189.88307
0.704514 141.15 189.24076
0.704792 131.66 189.79557
0.705071 -287.99 191.26711
0.705349 490.88 194.84054
0.705628 24.69 197.55379
0.705907 -105.86 194.39879
0.706185 -111.78 198.30587
0.706464 384.03 201.97936
0.706742 -2.73 200.13622
0.707021 196.38 201.93062
0.707299 64.11 201.26993
0.707578 139.54 204.43071
0.707856 53.3 205.247
0.708135 157.93 204.58932
0.708414 192.16 204.62214
0.708692 384.32 207.7517
0.708971 80.11 207.16869
0.709249 -48.23 212.27386
0.709528 53.77 208.88148
0.709806 -63.07 213.21088
0.710085 216.76 216.56241
0.710364 171.3 219.38763
0.710642 407.06 218.51482
0.710921 -231.31 221.65196
0.711199 39.33 224.60993
0.711478 -147.5 229.6854
0.711756 207.47 227.67819
0.712035 35.1 231.28608
0.712314 61.37 236.32501
0.712592 -110.17 240.22722
0.712871 -131.25 245.53891
0.713149 144.03 239.99184
0.713428 280.88 252.30972
0.713706 -270.55 252.39007
0.713985 263.53 257.35045
0.714264 72.62 254.55056
0.714542 -10.33 258.39417
0.714821 311.14 263.27131
0.715099 173.09 268.63068
0.715378 -60.67 261.47517
0.715656 124.53 267.54477
0.715935 110.02 270.30775
0.716214 192.4 273.91843
0.716492 1.39 271.65938
0.716771 509.23 275.20573
0.717049 355.05 282.78392
0.717328 44.65 283.36031
0.717606 -483.7 280.5057
0.717885 479.83 283.05421
0.718164 -160.9 286.65365
0.718442 368.12 293.85859
0.718721 363.83 300.74557
0.718999 -209.35 286.54057
0.719278 -341.89 301.17575
0.719556 272.7 307.24015
0.719835 309.68 309.72437
0.720114 -112.92 307.35507
0.720392 252.95 307.13534
0.720671 -166.46 315.89718
0.720949 285.59 329.22274
0.721228 -42.28 312.44897
0.721506 -19.03 321.45341
0.721785 244.83 329.97986
0.722064 -329.5 329.00328
0.722342 224.11 334.82187
0.722621 -44.99 334.29835
0.722899 244.13 347.59003
0.723178 742.31 349.9377
0.723456 372.5 353.06069
0.723735 338.21 347.94988
0.724014 -61.14 360.00278
0.724292 504.28 357.86551
0.724571 -499.24 373.86675
0.724849 -150.18 368.72386
0.725128 675.8 373.7982
0.725406 -448.43 386.24695
0.725685 251.19 395.24252
0.725964 -249.6 405.14385
0.726242 435.43 404.68559
0.726521 256.86 414.74918
0.726799 1058.9 424.92068
0.727078 -311.18 432.91939
0.727356 -67.88 439.86805
0.727635 -78.12 457.01231
0.727914 -672.62 458.14333
0.728192 -59.76 480.95019
0.728471 873.3 503.98524
0.728749 167.57 497.23433
0.729028 403.44 515.5317
0.729306 -405.24 525.24368
0.729585 80.8 541.18541
0.729864 -308.24 569.02632
0.730142 735.45 599.99883
0.730421 3.25 597.83106
0.730699 117.78 626.95017
0.730978 157.5 643.28412
0.731256 966.67 706.11253
0.731535 -568.3 721.55114
0.731814 1729.55 781.10417
0.732092 -169.34 812.70448
0.732371 1779.42 903.79888
0.732649 -1324.42 988.78483
0.732928 -340.26 1091.5754
0.733206 -1416.66 1371.4068

