# Q [1/Ã…] I(Q) [a.u.] dI(Q) [a.u.]
0.00223785 29068 25050.399
0.00251642 23731 19291.458
0.00279499 10491 13668.728
0.00307356 63202 10550.608
0.00335213 13933 7613.6951
0.0036307 22314 6392.9221
0.00390927 22571.9 4937.7373
0.00418784 24269.7 4207.9311
0.00446641 18503.5 3622.5944
0.00474498 27844.9 3149.5387
0.00502355 23357.5 2661.3842
0.00530212 26071.3 2350.3169
0.00558069 23881.9 2026.7062
0.00585926 27415.3 1874.1272
0.00613783 26863.8 1654.1789
0.0064164 25789.7 1413.3199
0.00669497 27930.2 1402.9242
0.00697355 27045.73 1196.192
0.00725212 26735.62 1145.7143
0.00753069 26319.46 1024.3493
0.00780926 25912 962.74939
0.00808783 25371.9 933.43195
0.0083664 26745.21 853.30121
0.00864497 25407.81 808.11598
0.00892354 27222.09 762.58871
0.00920211 27642.83 721.07947
0.00948068 26592.38 720.31367
0.00975925 26758.53 659.92521
0.0100378 26519.49 648.32364
0.0103164 27100.76 620.03288
0.010595 26216.43 590.87506
0.0108735 27389.38 591.69128
0.0111521 26558.48 558.5934
0.0114307 26313.19 564.36064
0.0117092 26194.15 528.99917
0.0119878 26596.04 517.80789
0.0122664 26322.19 512.48947
0.012545 25791 489.71293
0.0128235 26472.49 491.12395
0.0131021 26060.33 474.65022
0.0133807 26189.33 460.92877
0.0136592 25053.86 455.50084
0.0139378 25503.49 440.64607
0.0142164 25420.95 440.47644
0.0144949 25407.35 432.2987
0.0147735 25512.5 423.38028
0.0150521 25687.97 417.36334
0.0153307 25409.27 409.02688
0.0156092 25028.89 403.6696
0.0158878 25359.34 402.94567
0.0161664 25743.13 391.78319
0.0164449 25333.98 395.05175
0.0167235 25701.04 381.0286
0.0170021 25189.86 376.38027
0.0172806 25065.25 375.56003
0.0175592 24530.83 367.66499
0.0178378 25420.48 365.37609
0.0181164 24899.36 360.99994
0.0183949 25086.84 357.52223
0.0186735 25185.55 352.50788
0.0189521 24471.96 356.12294
0.0192306 24413.22 358.81754
0.0195092 24830.98 360.97903
0.0197878 24492.07 357.98036
0.0200664 25068.72 358.89994
0.0203449 24804.6 356.27212
0.0206235 24681.81 356.16648
0.0209021 24574.91 352.17435
0.0211806 24121.54 351.05373
0.0214592 24120.22 353.26122
0.0217378 23971.57 346.43789
0.0220163 24414.42 349.5284
0.0222949 24168.49 347.01973
0.0225735 23971 345.58737
0.0228521 24057.07 343.49167
0.0231306 24278.47 341.16913
0.0234092 23646.21 342.17344
0.0236878 23723.96 342.16922
0.0239663 23705.54 337.92249
0.0242449 23726.68 337.1667
0.0245235 23005.44 330.58245
0.024802 23929.72 336.39002
0.0250806 23759.81 335.1462
0.0253592 23024.5 323.52773
0.0256378 23167.43 322.62857
0.0259163 23758.61 314.20384
0.0261949 22978.9 314.91425
0.0264735 22485.3 306.08788
0.026752 22954.26 298.97544
0.0270306 23011.41 301.6831
0.0273092 22516.61 296.84039
0.0275877 22760.48 291.23512
0.0278663 22986.5 291.87154
0.0281449 22591.46 286.38995
0.0284235 22318.65 289.24435
0.028702 22086.5 282.43304
0.0289806 22302.93 279.59558
0.0292592 22562.49 280.54201
0.0295377 22220.3 276.423
0.0298163 22289.41 274.23588
0.0300949 22028.32 271.3775
0.0303735 21920.3 268.34056
0.030652 21870.56 270.94399
0.0309306 21891.03 267.62901
0.0312092 21459.54 262.96063
0.0314877 21613.4 263.8251
0.0317663 21647.55 262.172
0.0320449 21488.78 259.626
0.0323234 21602.89 258.96438
0.032602 21136.96 254.16299
0.0328806 21361.15 254.15735
0.0331592 21298.82 252.97375
0.0334377 21084.17 252.37141
0.0337163 20723.6 254.16685
0.0339949 20790.36 253.85938
0.0342734 20641.11 260.70479
0.034552 20567.98 256.22735
0.0348306 20495.91 254.32484
0.0351091 20277.64 256.43434
0.0353877 20468.22 257.13592
0.0356663 20433.33 259.36524
0.0359449 20467.91 254.47014
0.0362234 20125.89 252.75223
0.036502 20153.18 255.42041
0.0367806 19787.47 253.67559
0.0370591 19501.1 255.35129
0.0373377 19799.9 252.27847
0.0376163 19713.43 251.41714
0.0378949 19916.65 253.83271
0.0381734 19649.09 248.9779
0.038452 19555.79 252.56226
0.0387306 19100.42 246.43729
0.0390091 19599.59 252.40635
0.0392877 19478.24 250.16442
0.0395663 19174.07 244.67329
0.0398448 18916.57 248.37147
0.0401234 18868.6 245.3091
0.040402 18966.6 249.71117
0.0406806 18661.72 244.59616
0.0409591 18703.91 242.21244
0.0412377 18434.76 245.11536
0.0415163 18323.19 242.27349
0.0417948 18193.08 242.62692
0.0420734 18373.86 240.6604
0.042352 18089.35 240.79031
0.0426305 18319.64 246.09877
0.0429091 18202.11 243.03014
0.0431877 17967.65 245.41992
0.0434663 17387.93 245.29921
0.0437448 17560.22 249.91335
0.0440234 17657.69 249.65383
0.044302 17813.43 247.48525
0.0445805 17997.38 250.27387
0.0448591 17040.64 249.3692
0.0451377 17270.82 252.84507
0.0454163 17241.55 250.43586
0.0456948 16752.28 249.07554
0.0459734 16846.1 249.69376
0.046252 16452.33 250.96369
0.0465305 16764.07 246.24613
0.0468091 16732.64 245.92164
0.0470877 16666.59 243.0317
0.0473662 16656.1 238.65751
0.0476448 16009.21 239.46785
0.0479234 16085.44 236.1802
0.048202 16275.78 234.95493
0.0484805 16337.83 235.0633
0.0487591 16320.56 230.27926
0.0490377 15952.22 232.46611
0.0493162 16205.19 229.01731
0.0495948 15778.4 228.64595
0.0498734 15955.19 226.93335
0.0501519 15329.58 225.69123
0.0504305 15542.37 229.33822
0.0507091 15105.75 226.0845
0.0509877 15237.07 226.70662
0.0512662 15873.2 226.31438
0.0515448 15047.74 224.25319
0.0518234 15055.83 225.9456
0.0521019 14717.89 222.99499
0.0523805 14923.97 224.04427
0.0526591 15102.98 223.86879
0.0529376 14910.44 221.7346
0.0532162 14976.51 223.52007
0.0534948 14413.45 220.57456
0.0537734 14240.41 220.1791
0.0540519 14260.21 218.32184
0.0543305 14138.87 218.54582
0.0546091 14027.11 217.2068
0.0548876 13894.25 212.67442
0.0551662 13876.63 214.29282
0.0554448 13688.96 215.00882
0.0557234 13648.09 211.55317
0.0560019 13605.27 212.65299
0.0562805 13233.03 208.49469
0.0565591 13340.13 210.01198
0.0568376 13225.49 210.22594
0.0571162 13106.56 208.05949
0.0573948 13452.4 209.51029
0.0576733 13461.8 206.05669
0.0579519 12999.43 207.17129
0.0582305 12956.83 207.90641
0.0585091 12617 205.07868
0.0587876 12328.49 205.14565
0.0590662 12487.36 204.8144
0.0593448 12467.9 204.8148
0.0596233 12766.53 202.90167
0.0599019 12496.36 202.93134
0.0601805 12592.43 204.15594
0.060459 12158.64 201.87586
0.0607376 12252.69 199.68278
0.0610162 12075.83 199.73993
0.0612948 12220.79 200.31937
0.0615733 11795.27 200.00023
0.0618519 11725.42 198.18273
0.0621305 11893.42 197.22249
0.062409 11826.61 197.12629
0.0626876 11846.96 199.72102
0.0629662 11238.16 195.70556
0.0632448 11259.9 196.43061
0.0635233 11267.89 195.53467
0.0638019 10999.96 194.87282
0.0640805 11063.69 195.27528
0.064359 10911.36 192.64597
0.0646376 10781.5 194.37619
0.0649162 10764.61 193.1712
0.0651947 10733.69 193.08595
0.0654733 10931.13 191.38808
0.0657519 10448.84 189.94134
0.0660305 10485.86 191.85997
0.066309 10716.21 190.9578
0.0665876 10185.99 188.83119
0.0668662 10324.4 189.21974
0.0671447 10017.74 187.36765
0.0674233 9872.9 189.24484
0.0677019 10179.63 186.80388
0.0679804 9856.39 187.2794
0.068259 9996.24 186.29159
0.0685376 10160.46 186.14154
0.0688162 9809.35 185.92482
0.0690947 9616.57 182.49828
0.0693733 9196.5 185.83363
0.0696519 9321.29 184.65917
0.0699304 9510.22 185.50213
0.070209 9258.96 183.28868
0.0704876 9271.46 181.73362
0.0707662 9159.46 183.18594
0.0710447 9353.93 182.05419
0.0713233 9060.49 181.54123
0.0716019 9059.67 182.24935
0.0718804 8764.57 179.22086
0.072159 8879 180.35032
0.0724376 8525.05 179.89378
0.0727161 8803.58 178.03974
0.0729947 8737.09 178.51408
0.0732733 8321.39 179.34318
0.0735519 8552.18 178.41084
0.0738304 7838.02 176.82693
0.074109 8425.06 175.36314
0.0743876 8291.73 176.52029
0.0746661 8073.06 175.52902
0.0749447 7833.23 173.74758
0.0752233 8220.71 175.44062
0.0755018 7984.33 174.49118
0.0757804 8044.07 174.23927
0.076059 7985.09 174.59657
0.0763376 7751.91 173.52382
0.0766161 7833.68 172.50536
0.0768947 7568.72 172.65277
0.0771733 7596.88 172.6216
0.0774518 7465.75 170.51756
0.0777304 7571.7 169.92316
0.078009 7574.76 175.30135
0.0782875 7502.26 174.99231
0.0785661 7161.69 175.6371
0.0788447 7117.6 176.35506
0.0791233 7029.83 178.72949
0.0794018 7228.45 180.13527
0.0796804 6980.1 177.3711
0.079959 7097.14 179.08139
0.0802375 6915.19 179.4197
0.0805161 6665.5 180.79144
0.0807947 6810.78 181.85625
0.0810733 6545.4 179.25624
0.0813518 6571.56 182.81026
0.0816304 6786.53 181.70003
0.081909 6300.59 181.56288
0.0821875 6407.33 182.45969
0.0824661 6500 182.62934
0.0827447 6165.71 181.70135
0.0830232 5996.14 183.03322
0.0833018 6099.69 181.19044
0.0835804 6152.95 183.3414
0.083859 6105.07 183.4621
0.0841375 5853.85 183.652
0.0844161 5675.78 182.47804
0.0846947 6072.31 179.97038
0.0849732 5961.85 178.0447
0.0852518 5830.49 175.34298
0.0855304 5897.87 173.71157
0.0858089 5793.45 172.82303
0.0860875 5512.23 172.9296
0.0863661 5471.14 172.18343
0.0866447 5605.78 170.25453
0.0869232 4979.63 169.45813
0.0872018 5413.2 168.56475
0.0874804 5161.78 169.18415
0.0877589 5117.19 167.07749
0.0880375 5369.54 166.6733
0.0883161 5439.57 166.03434
0.0885947 4963.7 165.82678
0.0888732 5004.11 165.49628
0.0891518 4798.18 163.92979
0.0894304 5218.82 164.15212
0.0897089 5144.78 162.55702
0.0899875 4958.57 162.01392
0.0902661 4830.19 160.72197
0.0905446 4874.39 160.11475
0.0908232 4661.37 161.24706
0.0911018 4616.43 160.08936
0.0913804 4834.38 158.87412
0.0916589 4750.74 158.56551
0.0919375 4243.75 161.19737
0.0922161 4393.47 164.84756
0.0924946 4596.1 163.56375
0.0927732 4168.28 164.30881
0.0930518 4372.39 165.46167
0.0933303 4408.61 167.39633
0.0936089 4237.52 167.19348
0.0938875 4136.05 167.63232
0.0941661 4150.48 166.82196
0.0944446 4440.43 167.52821
0.0947232 4155.35 166.22518
0.0950018 4379 167.36003
0.0952803 3894.42 167.27607
0.0955589 4217.85 169.91365
0.0958375 4081.74 166.0295
0.0961161 3708.58 164.04443
0.0963946 4023.54 162.01065
0.0966732 3615.86 160.35412
0.0969518 3920.65 160.24747
0.0972303 3856.07 159.20525
0.0975089 3682.17 158.55806
0.0977875 3692.41 157.56037
0.098066 3611.33 157.92664
0.0983446 3498.51 157.53275
0.0986232 3723.91 155.83196
0.0989018 3614.9 157.41144
0.0991803 3342.56 155.33028
0.0994589 3281.37 154.74164
0.0997375 3171.41 154.23333
0.100016 3479.36 153.79594
0.100295 3405.02 153.43269
0.100573 3576.96 152.15287
0.100852 3083.36 152.12391
0.10113 3270.11 151.21368
0.101409 3388.3 151.23617
0.101687 3094.29 149.88474
0.101966 3138.35 150.13186
0.102245 3172.58 149.12851
0.102523 3112.54 149.4309
0.102802 2987.95 149.20008
0.10308 2901.34 148.46705
0.103359 2740.68 148.44499
0.103637 2785.15 148.30033
0.103916 2867.48 147.18193
0.104195 2795.13 147.88523
0.104473 2889.97 146.99033
0.104752 2790.78 146.42606
0.10503 2789.26 147.08105
0.105309 2663.81 145.9048
0.105587 2734.63 146.74405
0.105866 2847.5 144.37645
0.106145 2499.35 146.14722
0.106423 2898.69 145.47504
0.106702 2343.03 143.90463
0.10698 2535.21 145.43588
0.107259 2502.13 144.54825
0.107537 2261.62 145.08419
0.107816 2427.19 143.71437
0.108095 2301.58 142.81035
0.108373 2326.53 144.25798
0.108652 2297.61 143.17845
0.10893 2312.58 143.34667
0.109209 2275.8 143.03522
0.109487 2643.41 142.17753
0.109766 2325.05 142.75675
0.110045 2228.32 141.99313
0.110323 2262.68 141.12275
0.110602 2061.44 140.64738
0.11088 2080.69 142.01804
0.111159 1971.35 142.16221
0.111437 2279.65 140.27153
0.111716 1933.2 140.69753
0.111995 2166.81 141.0772
0.112273 1909.53 140.50457
0.112552 1865.14 140.4905
0.11283 1913.95 139.34991
0.113109 2106.16 139.65981
0.113387 1817.81 139.31005
0.113666 1946.89 139.61889
0.113945 1606.77 139.31307
0.114223 1787.48 138.18677
0.114502 1851.59 138.42384
0.11478 1897.94 138.63721
0.115059 1790.7 137.35135
0.115337 1948.1 137.5699
0.115616 1764.99 138.16853
0.115895 1558.75 137.49068
0.116173 1782.66 137.34634
0.116452 1969.58 136.92182
0.11673 1590.32 136.64751
0.117009 1449.31 136.5977
0.117287 1475.64 136.16197
0.117566 1491.66 136.48486
0.117845 1830.71 136.31157
0.118123 1649.1 135.72821
0.118402 1499.07 135.63461
0.11868 1416.08 134.83369
0.118959 1784.94 135.3922
0.119237 1425.36 134.69192
0.119516 1331.14 135.08271
0.119795 1468.35 134.23953
0.120073 1620.65 133.45342
0.120352 1381.36 134.46328
0.12063 1330.39 133.4683
0.120909 1615.65 132.45254
0.121187 1631.1 132.61843
0.121466 1241.86 132.39624
0.121745 1478.96 132.69235
0.122023 1339.84 131.99516
0.122302 1192.24 130.93163
0.12258 1321.47 131.26985
0.122859 1219.54 130.98997
0.123137 1248.7 132.36663
0.123416 1434.04 129.91633
0.123695 1371.19 130.95692
0.123973 1056.7 130.67631
0.124252 1180.05 129.54282
0.12453 1202.48 130.5115
0.124809 1045.53 129.55535
0.125087 1293.13 130.6207
0.125366 1204.93 129.36905
0.125645 981 129.53052
0.125923 1068.51 129.76205
0.126202 1089.68 129.2909
0.12648 1184.14 129.76737
0.126759 1165.77 130.28147
0.127037 1097.65 129.0844
0.127316 1043.6 128.17929
0.127594 1031.99 128.8784
0.127873 1281.75 129.23871
0.128152 1271.09 128.54295
0.12843 914.18 128.36663
0.128709 1191.55 128.66443
0.128987 938.38 128.15869
0.129266 956.38 126.85384
0.129544 909.24 128.23332
0.129823 1046.83 127.30655
0.130102 952.81 127.96153
0.13038 896.59 127.26933
0.130659 823 126.80927
0.130937 949.18 126.7249
0.131216 966.27 126.81163
0.131494 866.01 126.07085
0.131773 874.22 127.39391
0.132052 817.9 125.23036
0.13233 761.72 126.0379
0.132609 802.39 125.70426
0.132887 900.82 125.94315
0.133166 898.48 126.35819
0.133444 884.27 124.87618
0.133723 757.69 126.20541
0.134002 883.76 125.37616
0.13428 596.27 124.43606
0.134559 694.19 125.22514
0.134837 992.72 124.80696
0.135116 838.72 124.48561
0.135394 682.26 123.1817
0.135673 724.6 124.43499
0.135952 706 124.43862
0.13623 740.66 123.39879
0.136509 537.32 124.64687
0.136787 540.82 123.68881
0.137066 752.69 125.20968
0.137344 352.05 126.28017
0.137623 513.3 127.15914
0.137902 619.5 129.03341
0.13818 605.43 128.61744
0.138459 638.69 128.84768
0.138737 694.64 130.28205
0.139016 687.15 129.01014
0.139294 462.45 131.40712
0.139573 746.45 131.08224
0.139852 624.65 131.03761
0.14013 268.12 132.48308
0.140409 393.46 131.01435
0.140687 653.8 132.91978
0.140966 630.33 132.71834
0.141244 559.78 132.38679
0.141523 566.36 134.2945
0.141802 400 132.81691
0.14208 579.58 133.75647
0.142359 488.76 133.13087
0.142637 351.18 133.95214
0.142916 624.27 134.39799
0.143194 451.36 134.35855
0.143473 383.1 134.61622
0.143752 501.91 131.46581
0.14403 615.89 130.88439
0.144309 390.17 129.14003
0.144587 331.23 127.85643
0.144866 543.78 127.57424
0.145144 489.01 127.53908
0.145423 421.99 126.27151
0.145702 475.57 126.51774
0.14598 406.9 126.58151
0.146259 484.4 124.69158
0.146537 329.59 125.47143
0.146816 140.25 125.11137
0.147094 496.94 124.88601
0.147373 312.9 124.00363
0.147652 428.98 124.75818
0.14793 527.22 123.6879
0.148209 478.66 124.17729
0.148487 388.86 123.23148
0.148766 453.76 123.08433
0.149044 575.59 123.12702
0.149323 441.73 122.32578
0.149602 472.43 122.49746
0.14988 474.05 122.12345
0.150159 158.85 121.68071
0.150437 451.94 121.94867
0.150716 374.42 122.36804
0.150994 272.78 121.0999
0.151273 392.16 121.68108
0.151552 294.97 121.46815
0.15183 406.86 120.2298
0.152109 203.28 121.1706
0.152387 361.1 120.63717
0.152666 526.82 121.57563
0.152944 410.16 120.60906
0.153223 303.37 120.00412
0.153502 315.98 120.23838
0.15378 365.39 119.39788
0.154059 371.8 119.91211
0.154337 313.59 119.19439
0.154616 412.84 118.76214
0.154894 381.46 120.14672
0.155173 418.45 118.66569
0.155452 549.49 119.88639
0.15573 343.08 118.74045
0.156009 422.41 118.93759
0.156287 193.67 118.84003
0.156566 126.98 117.65184
0.156844 295.94 118.63951
0.157123 128.98 118.85246
0.157402 235.4 117.80952
0.15768 204.68 118.11251
0.157959 264.27 117.44978
0.158237 329.72 117.71969
0.158516 420.51 117.48674
0.158794 562.43 117.28198
0.159073 325.32 117.31374
0.159352 374.98 117.30669
0.15963 365.59 116.84679
0.159909 327.98 116.87313
0.160187 254.96 115.78339
0.160466 492.91 116.73802
0.160744 276.21 116.47574
0.161023 117.22 116.34305
0.161302 112.81 115.58728
0.16158 252.15 115.43021
0.161859 126.86 116.2555
0.162137 310.35 116.18284
0.162416 57.84 115.2248
0.162694 225.3 115.50275
0.162973 193.12 115.03643
0.163252 127.79 115.07442
0.16353 149.66 114.76274
0.163809 138.99 114.76632
0.164087 241.18 115.58319
0.164366 396.55 114.94658
0.164644 40.77 113.62881
0.164923 244.32 114.5521
0.165201 252.64 114.35455
0.16548 51.66 114.19374
0.165759 321.28 113.56139
0.166037 348.27 112.6671
0.166316 344.12 114.37229
0.166594 173.68 112.79651
0.166873 147.14 113.7646
0.167151 155.08 113.34962
0.16743 268.3 112.34745
0.167709 187.08 113.01769
0.167987 200.31 111.89628
0.168266 47.12 112.16475
0.168544 172.57 112.63036
0.168823 17.32 112.30296
0.169101 191.36 112.21188
0.16938 159.7 112.07522
0.169659 179.83 112.6366
0.169937 473.65 112.30665
0.170216 96.46 111.90086
0.170494 121.82 111.31351
0.170773 163.53 110.88751
0.171051 130.59 112.28208
0.17133 23.72 111.71502
0.171609 176.74 112.19889
0.171887 149.54 111.63792
0.172166 336.22 112.18713
0.172444 87.61 111.94858
0.172723 273.97 111.79401
0.173001 110.26 111.02118
0.17328 314.24 110.84515
0.173559 209.83 111.501
0.173837 327.38 111.10522
0.174116 101.46 111.14454
0.174394 44.23 111.19213
0.174673 119.79 111.77012
0.174951 293.09 110.85436
0.17523 136.09 110.45514
0.175509 153.08 111.22712
0.175787 201.08 110.32932
0.176066 84.61 110.40953
0.176344 309.66 110.62573
0.176623 -26.61 110.10659
0.176901 -67.31 110.47712
0.17718 260.02 110.23506
0.177459 195.78 110.39393
0.177737 207.72 110.33419
0.178016 183.68 110.08872
0.178294 408.41 111.28113
0.178573 151.76 109.30541
0.178851 87.51 110.79343
0.17913 205.04 109.39483
0.179409 271.88 109.79581
0.179687 448.68 109.76635
0.179966 164.63 109.62752
0.180244 98.69 109.75401
0.180523 123.05 109.21253
0.180801 -3.66 108.9929
0.18108 315.02 109.33634
0.181359 112.44 109.17706
0.181637 163.06 109.2002
0.181916 167.59 109.08982
0.182194 184.52 109.37626
0.182473 1.66 109.41896
0.182751 194.69 109.02081
0.18303 108.97 109.66352
0.183309 196.43 110.03978
0.183587 259.06 109.19919
0.183866 313.3 110.13765
0.184144 376.39 109.60611
0.184423 181.93 110.06279
0.184701 62.49 110.51648
0.18498 155.13 110.07112
0.185259 231.2 110.34272
0.185537 -22.75 109.65438
0.185816 250.6 110.27552
0.186094 315.54 110.13076
0.186373 351.28 109.64033
0.186651 188.05 109.3089
0.18693 204.72 109.8515
0.187209 307.29 108.68338
0.187487 280.75 109.39778
0.187766 338.23 108.79804
0.188044 147.02 108.77182
0.188323 177.28 109.38065
0.188601 353.37 108.29406
0.18888 89.22 108.52234
0.189159 194.51 108.1966
0.189437 314.57 108.07482
0.189716 92.16 108.50074
0.189994 129.28 107.62104
0.190273 319.68 108.0168
0.190551 165.86 107.66059
0.19083 229.9 107.59094
0.191109 358.34 107.82339
0.191387 183.49 106.81951
0.191666 109.13 108.10908
0.191944 198.32 107.21594
0.192223 197.35 106.84128
0.192501 60.52 107.67024
0.19278 191.08 106.61486
0.193059 256.42 107.12455
0.193337 169.57 106.73134
0.193616 226.75 106.59827
0.193894 361.97 106.75128
0.194173 317.55 105.86551
0.194451 170.13 106.83765
0.19473 226.64 106.66828
0.195009 203.66 105.47312
0.195287 350.94 106.58074
0.195566 60.38 105.27695
0.195844 261.45 106.55744
0.196123 268.45 107.35274
0.196401 171.85 107.96818
0.19668 232.72 109.83035
0.196959 -13.88 109.02257
0.197237 69.06 110.51523
0.197516 276.5 110.1854
0.197794 252.5 110.65121
0.198073 430.81 111.2031
0.198351 195.94 110.80788
0.19863 -30.5 111.52885
0.198909 -56.04 111.31023
0.199187 203.93 111.56359
0.199466 204.64 113.09708
0.199744 173.98 112.2758
0.200023 308.53 112.95506
0.200301 148.03 112.93868
0.20058 119.65 113.96214
0.200858 153.52 114.08201
0.201137 102.84 113.94577
0.201416 338.78 114.01642
0.201694 275.43 113.71985
0.201973 269.69 115.03095
0.202251 226.83 114.70282
0.20253 228.13 115.85477
0.202808 81.1 113.36536
0.203087 70.3 112.92512
0.203366 264.08 111.62985
0.203644 285.66 111.61374
0.203923 207.11 110.40435
0.204201 101.18 110.23908
0.20448 74.79 109.97067
0.204758 264.87 108.98776
0.205037 416.39 109.5395
0.205316 151.19 109.03077
0.205594 235.34 109.07668
0.205873 302.03 109.19546
0.206151 301.75 108.08205
0.20643 172.35 108.69146
0.206708 213.46 107.80546
0.206987 318.52 107.89345
0.207266 62.74 108.21487
0.207544 175.02 107.24979
0.207823 139.69 108.97076
0.208101 172.16 107.54497
0.20838 221.61 108.04839
0.208658 168.55 107.95892
0.208937 117.68 106.61224
0.209216 206.83 108.55571
0.209494 237.77 106.67205
0.209773 223.98 106.38714
0.210051 52.83 107.08965
0.21033 52.59 106.80004
0.210608 131.9 107.13813
0.210887 228.83 106.33383
0.211166 327.93 106.3623
0.211444 76.86 106.06001
0.211723 271.83 105.94901
0.212001 210.7 105.77224
0.21228 401.08 105.44552
0.212558 153.59 106.29641
0.212837 139.95 106.13639
0.213116 106.6 104.56595
0.213394 -64.02 105.63225
0.213673 159.83 105.46044
0.213951 38.6 105.68937
0.21423 199.88 105.10688
0.214508 246.68 104.80081
0.214787 307.52 105.01608
0.215066 240.34 104.75806
0.215344 234.72 104.75064
0.215623 217.94 104.90655
0.215901 47.34 104.68373
0.21618 168.53 104.93012
0.216458 118.08 104.87679
0.216737 123.86 104.53551
0.217016 131.04 104.341
0.217294 193.99 104.62442
0.217573 67.97 104.38782
0.217851 182.46 103.81242
0.21813 266.81 103.7147
0.218408 152.48 103.47546
0.218687 115.82 103.40647
0.218966 24.89 103.67132
0.219244 252.83 103.78057
0.219523 201.16 103.13909
0.219801 202.04 103.46469
0.22008 145.07 102.8161
0.220358 426.06 103.11241
0.220637 157.36 103.95235
0.220916 254.03 102.72209
0.221194 141.83 103.02106
0.221473 271.27 102.79104
0.221751 -70.97 102.2743
0.22203 79.24 102.8102
0.222308 201.88 102.50342
0.222587 275.56 102.36519
0.222866 218.29 102.93652
0.223144 164.74 102.48992
0.223423 162.01 102.78984
0.223701 232.49 101.98281
0.22398 40.72 102.53085
0.224258 323.63 103.15196
0.224537 299.32 102.2938
0.224816 129.61 102.5895
0.225094 206.22 101.97691
0.225373 339.2 102.85911
0.225651 215.89 102.54491
0.22593 193.67 102.21937
0.226208 99.6 102.05956
0.226487 34.65 101.2347
0.226766 231.33 101.7631
0.227044 105.07 101.31426
0.227323 152.88 101.63853
0.227601 155.65 101.40151
0.22788 191.98 101.41446
0.228158 182.18 101.3109
0.228437 107.11 101.02913
0.228716 124.53 100.60279
0.228994 172.31 100.55937
0.229273 394.75 100.42216
0.229551 193.74 100.31658
0.22983 226.29 100.83471
0.230108 252.57 100.56499
0.230387 152.4 100.67378
0.230666 172.8 100.4916
0.230944 308.39 100.85115
0.231223 75.88 100.52828
0.231501 -22.89 101.02484
0.23178 157.34 101.02978
0.232058 177.09 101.48849
0.232337 128.05 101.3938
0.232616 191.24 101.82407
0.232894 113.79 101.24618
0.233173 -92.07 101.99082
0.233451 67.86 102.52695
0.23373 174.35 101.41425
0.234008 230.35 102.43485
0.234287 166.35 102.21738
0.234566 407.2 102.35762
0.234844 20.35 102.32387
0.235123 83.42 101.95638
0.235401 100.81 102.52056
0.23568 333.97 101.44917
0.235958 290.14 101.85193
0.236237 260.15 101.8343
0.236515 304.15 101.45093
0.236794 266.46 101.81803
0.237073 210.76 101.11887
0.237351 143.53 101.5377
0.23763 261.15 100.85946
0.237908 86.68 100.94698
0.238187 163.31 100.69667
0.238465 2.67 100.82958
0.238744 171.14 100.52578
0.239023 17.73 100.36263
0.239301 106.57 99.981405
0.23958 338.33 100.65401
0.239858 57.33 99.914619
0.240137 253.08 100.34639
0.240415 105.39 99.725926
0.240694 120.9 99.659876
0.240973 244.91 100.04433
0.241251 169.13 99.735904
0.24153 94.49 99.761301
0.241808 296.02 99.496926
0.242087 6.09 99.742175
0.242365 259.51 99.918602
0.242644 143.79 98.610411
0.242923 140.09 98.863276
0.243201 321.82 99.041676
0.24348 174.49 98.940099
0.243758 144.24 98.173572
0.244037 254.28 98.305377
0.244315 173.25 98.409279
0.244594 183.27 98.063479
0.244873 200.21 97.863077
0.245151 61.81 97.66046
0.24543 176.3 97.912731
0.245708 194.21 97.453309
0.245987 8.38 97.769802
0.246265 77.39 98.036738
0.246544 98.72 97.459233
0.246823 166.76 97.987583
0.247101 214.65 97.092592
0.24738 41.49 97.9644
0.247658 86.01 97.606858
0.247937 86.97 97.688956
0.248215 190.39 98.212313
0.248494 48.48 97.559393
0.248773 -53.68 97.304681
0.249051 409.14 97.854544
0.24933 158.93 97.732408
0.249608 -23.3 97.492731
0.249887 65.61 96.871778
0.250165 127.49 97.23109
0.250444 183.2 97.631752
0.250723 159.59 97.150427
0.251001 108.07 97.411083
0.25128 187.9 97.241546
0.251558 180.16 97.429265
0.251837 150.37 96.592628
0.252115 112.76 97.571462
0.252394 308.1 97.371601
0.252673 104.04 96.938498
0.252951 131.6 96.310966
0.25323 112.32 96.502915
0.253508 144.98 96.667411
0.253787 162.56 96.962106
0.254065 286.84 96.301036
0.254344 -48.13 96.413118
0.254623 104.21 96.812773
0.254901 164.94 96.727928
0.25518 208.79 97.731371
0.255458 -43.25 98.164482
0.255737 43.84 99.515673
0.256015 72.7 99.652949
0.256294 88.29 100.52434
0.256573 -80.27 100.80621
0.256851 164.04 100.93809
0.25713 63.51 101.32332
0.257408 73.99 101.63492
0.257687 357.78 102.5807
0.257965 111.65 101.86124
0.258244 162.59 102.99857
0.258523 74.52 102.78727
0.258801 227.44 102.86703
0.25908 -98.22 103.50288
0.259358 74.12 103.16543
0.259637 172.27 104.22706
0.259915 115.64 103.73551
0.260194 298.17 104.02863
0.260473 90.67 104.30829
0.260751 43.5 104.27578
0.26103 109.36 105.62928
0.261308 177.97 105.09618
0.261587 187.58 104.91233
0.261865 -102.79 103.22851
0.262144 141.08 102.99318
0.262423 161.75 102.32103
0.262701 24.32 101.89194
0.26298 -11.69 101.3441
0.263258 199.72 101.05469
0.263537 82.56 100.49579
0.263815 13.87 100.64142
0.264094 134.85 99.630142
0.264373 233.52 101.38309
0.264651 116.16 99.490741
0.26493 218.15 99.436538
0.265208 48.8 99.801979
0.265487 162.73 98.887876
0.265765 -48.63 100.1428
0.266044 66.74 98.871032
0.266323 22.06 98.703728
0.266601 78.32 98.430566
0.26688 211.3 98.294419
0.267158 226.8 98.869627
0.267437 233.25 98.12202
0.267715 200.79 98.395706
0.267994 151.12 98.283586
0.268273 92.37 97.264881
0.268551 238.92 97.968074
0.26883 235.05 97.102929
0.269108 16.8 97.62266
0.269387 -15.31 97.133942
0.269665 28.4 96.38394
0.269944 117.15 96.766513
0.270223 -109.37 96.366887
0.270501 65.75 96.419605
0.27078 166.52 96.359676
0.271058 122.14 96.219134
0.271337 103.94 96.00122
0.271615 220.55 95.886054
0.271894 100.08 95.59461
0.272172 -3.79 95.912664
0.272451 197.54 95.631817
0.27273 25.63 95.573603
0.273008 320.16 96.172281
0.273287 192.43 95.321999
0.273565 131 96.190196
0.273844 -50.01 95.919466
0.274122 17.79 95.502439
0.274401 23.52 96.112748
0.27468 312.57 95.57587
0.274958 143.69 95.817276
0.275237 223.54 95.509339
0.275515 111.63 95.439792
0.275794 93.18 95.327705
0.276072 157.03 95.533914
0.276351 177 95.451919
0.27663 105.69 94.778418
0.276908 32.77 95.151971
0.277187 62.08 95.178283
0.277465 -26.72 94.930222
0.277744 1.19 95.217441
0.278022 44.54 94.633325
0.278301 189.3 94.459187
0.27858 -7.42 95.606894
0.278858 -57.53 94.589409
0.279137 228.27 94.92269
0.279415 18.51 94.772641
0.279694 78.24 94.682971
0.279972 -54.52 94.869286
0.280251 47.3 94.63118
0.28053 144.93 94.70341
0.280808 162.14 94.769705
0.281087 113.65 94.066816
0.281365 102.78 94.435795
0.281644 179.42 94.647656
0.281922 -13.18 94.529125
0.282201 205.05 94.295119
0.28248 160.06 93.932935
0.282758 -79.92 94.169914
0.283037 104.6 93.751296
0.283315 35.66 94.15866
0.283594 98.86 93.668947
0.283872 13.82 94.051417
0.284151 68.27 93.889218
0.28443 136.06 94.097496
0.284708 90.55 93.599327
0.284987 61.74 93.727877
0.285265 113.02 93.515535
0.285544 237.98 93.581096
0.285822 56.18 94.063773
0.286101 142.82 93.606084
0.28638 27.13 93.657173
0.286658 114.88 93.150315
0.286937 189.61 93.371914
0.287215 -26.19 93.402251
0.287494 -144.88 92.841918
0.287772 53.65 93.507694
0.288051 16.22 93.132786
0.28833 114.27 93.168672
0.288608 -335.45 93.318594
0.288887 -72.58 92.64747
0.289165 2.14 93.478762
0.289444 86.82 93.261159
0.289722 73.75 93.030378
0.290001 115.63 92.807578
0.29028 44.35 92.520007
0.290558 1.03 93.378148
0.290837 -18.73 92.564591
0.291115 77.62 92.643869
0.291394 13.57 92.69895
0.291672 -30.1 92.67832
0.291951 -47.4 92.772765
0.29223 -2.56 92.239839
0.292508 8.21 92.595033
0.292787 67.93 92.433067
0.293065 12 92.655944
0.293344 101.16 92.658175
0.293622 40.15 91.891969
0.293901 25.05 92.734925
0.29418 177.9 92.363371
0.294458 269.29 92.005974
0.294737 -9.16 92.098653
0.295015 -146.57 91.983988
0.295294 180.19 92.54171
0.295572 72.04 92.45885
0.295851 144.39 91.779143
0.29613 22.45 91.805169
0.296408 2.84 91.809233
0.296687 161.89 91.800736
0.296965 114.04 91.563177
0.297244 82.43 91.407749
0.297522 2.44 92.394809
0.297801 106.29 91.533555
0.29808 180.05 91.933623
0.298358 131.67 91.798791
0.298637 34.38 92.216743
0.298915 140.11 91.259467
0.299194 75.45 90.978796
0.299472 -56.7 91.404529
0.299751 126.04 91.99371
0.30003 125.35 91.260343
0.300308 94.35 91.843942
0.300587 4.3 91.111668
0.300865 79.66 91.108663
0.301144 176.21 91.382271
0.301422 -141.04 90.879437
0.301701 8.62 91.202428
0.30198 149.02 91.776361
0.302258 255.03 90.637781
0.302537 -0.54 91.006354
0.302815 72.07 90.709626
0.303094 175.88 90.548431
0.303372 -5.93 91.103259
0.303651 15.73 90.49415
0.30393 178.65 90.738308
0.304208 135.06 90.440934
0.304487 157.65 90.347852
0.304765 66.12 90.733835
0.305044 56.6 89.838629
0.305322 -36 90.414816
0.305601 212.41 90.246247
0.30588 -119.01 89.903602
0.306158 -50.8 90.53479
0.306437 1.55 90.157778
0.306715 -111.46 90.450151
0.306994 -65.53 90.324534
0.307272 -87.06 90.229072
0.307551 -147.59 90.274575
0.30783 118.29 90.197224
0.308108 97.29 90.472576
0.308387 230.53 90.297662
0.308665 -4.66 90.029964
0.308944 72.85 90.38349
0.309222 -69.88 90.153362
0.309501 133.67 90.590315
0.309779 157.5 90.255706
0.310058 149.92 90.175686
0.310337 24.73 90.03499
0.310615 132.95 89.694882
0.310894 -109.27 90.077671
0.311172 189.85 89.878926
0.311451 12.65 90.439922
0.311729 139.25 89.874437
0.312008 103.6 89.842233
0.312287 264.5 89.928052
0.312565 162.17 89.46379
0.312844 22.48 89.686241
0.313122 -101.84 89.800064
0.313401 -11.66 89.933755
0.313679 73.43 89.092952
0.313958 12.94 90.019296
0.314237 -47.88 90.211475
0.314515 46.63 91.669363
0.314794 69.81 91.851672
0.315072 69.24 92.641882
0.315351 203.36 92.692178
0.315629 71.28 93.228727
0.315908 219.22 94.039391
0.316187 157.97 94.419155
0.316465 -13.87 94.058624
0.316744 74.09 94.972115
0.317022 126.78 94.670739
0.317301 13.87 94.634056
0.317579 -78.81 94.856289
0.317858 136.4 95.412565
0.318137 66.44 96.068163
0.318415 109.65 95.646539
0.318694 190.71 96.452394
0.318972 -48.45 96.332532
0.319251 190.35 96.624082
0.319529 24.77 97.587672
0.319808 49.7 96.821513
0.320087 -54.11 98.262107
0.320365 -16.98 97.455311
0.320644 44.1 97.909566
0.320922 180.3 97.185147
0.321201 61.57 95.085265
0.321479 23.39 95.809548
0.321758 55.21 94.394408
0.322037 81.7 94.195749
0.322315 -17.51 94.160207
0.322594 90.8 93.278456
0.322872 71.29 94.036274
0.323151 78.87 93.121984
0.323429 17.79 93.11517
0.323708 225.06 93.158715
0.323987 -163.66 92.585337
0.324265 104.65 92.334201
0.324544 -27.82 93.132807
0.324822 149.68 92.659742
0.325101 48.66 92.081089
0.325379 69.75 91.772418
0.325658 153.81 92.210342
0.325937 -75.86 92.157923
0.326215 112.96 91.778876
0.326494 169.11 91.169732
0.326772 -15.62 91.975217
0.327051 -4.24 91.187793
0.327329 79.13 91.926451
0.327608 92.55 91.261032
0.327887 72.53 91.438822
0.328165 0.48 91.110251
0.328444 60.08 90.747198
0.328722 39.38 91.345069
0.329001 -81.57 90.347741
0.329279 -1.43 90.68675
0.329558 -141.51 90.898412
0.329837 -129.14 90.160599
0.330115 -120.57 90.541384
0.330394 82.75 90.344332
0.330672 104.6 90.308955
0.330951 91.83 90.61964
0.331229 76.95 89.503254
0.331508 -109.94 90.393737
0.331787 20.41 89.74964
0.332065 39.83 89.927324
0.332344 -155.66 90.056949
0.332622 83.42 89.430297
0.332901 77.19 90.872716
0.333179 28.48 89.325733
0.333458 145.29 89.200261
0.333737 36.82 90.125517
0.334015 27.02 89.514447
0.334294 96.55 90.475528
0.334572 55.2 89.634467
0.334851 131.72 89.471924
0.335129 78.32 90.466995
0.335408 185.86 89.567963
0.335687 39.47 90.101848
0.335965 36.59 89.656111
0.336244 13.1 89.653283
0.336522 104.09 89.639617
0.336801 27.95 89.001315
0.337079 230.97 89.418823
0.337358 112.77 89.214668
0.337637 20.56 89.239299
0.337915 42.18 89.442613
0.338194 -21.45 88.850669
0.338472 77.95 89.036956
0.338751 -124.05 89.165156
0.339029 64.81 89.04145
0.339308 176.56 88.91575
0.339587 15.47 88.642248
0.339865 92.32 88.997869
0.340144 137.35 88.294218
0.340422 64.7 88.909708
0.340701 124.44 88.593637
0.340979 179.59 88.696105
0.341258 160.28 88.480447
0.341537 122.29 88.357655
0.341815 157.6 88.34566
0.342094 -50.47 88.801782
0.342372 115.76 88.900412
0.342651 -25.02 88.255097
0.342929 -77.51 87.856488
0.343208 99.48 88.111794
0.343487 69.98 88.369641
0.343765 -13.75 88.168821
0.344044 116.03 87.411112
0.344322 -31.15 87.884768
0.344601 11.87 87.818318
0.344879 19.3 88.058195
0.345158 -37.89 87.549018
0.345436 44.4 87.176072
0.345715 83.82 88.002067
0.345994 54.3 87.228946
0.346272 85.67 87.351398
0.346551 160.1 87.308037
0.346829 32.85 87.249101
0.347108 210.01 87.643611
0.347386 100.61 86.846724
0.347665 180.59 87.649949
0.347944 -30.37 87.311432
0.348222 194.5 87.471457
0.348501 -142.98 87.379476
0.348779 104.99 87.095847
0.349058 156.19 87.277845
0.349336 -126.78 87.364363
0.349615 56.39 86.987753
0.349894 26.44 87.429755
0.350172 156.91 86.624344
0.350451 -31.95 87.615442
0.350729 144.97 87.333059
0.351008 79.49 87.101252
0.351286 -18.22 87.482494
0.351565 185.29 86.87023
0.351844 201.08 87.932534
0.352122 52.84 87.195854
0.352401 178.26 87.122824
0.352679 133.72 87.160065
0.352958 63.83 86.882864
0.353236 63.97 87.586931
0.353515 4.2 86.772974
0.353794 117.46 87.017625
0.354072 -34.7 86.918346
0.354351 137.84 86.94432
0.354629 -122.23 86.855353
0.354908 9.47 87.274781
0.355186 193.5 86.824714
0.355465 110.73 87.324166
0.355744 -68.51 87.367562
0.356022 60.3 86.679546
0.356301 107.1 87.404745
0.356579 123.57 86.979142
0.356858 29.46 87.023009
0.357136 -68.69 87.566037
0.357415 -56.57 86.876264
0.357694 101.01 87.219447
0.357972 -80.09 86.382382
0.358251 129.99 87.238663
0.358529 99.66 87.194287
0.358808 69.07 86.958064
0.359086 -1.51 87.469775
0.359365 160.97 86.626648
0.359644 205.33 86.948146
0.359922 146.6 87.138996
0.360201 86.55 86.634522
0.360479 23.77 87.409193
0.360758 10.54 87.072157
0.361036 -89.08 86.834322
0.361315 88.48 86.908718
0.361594 60.89 86.662356
0.361872 14.26 86.906153
0.362151 76.51 87.206209
0.362429 148.88 86.881415
0.362708 187.97 86.857155
0.362986 173.29 86.782622
0.363265 -69.02 86.901664
0.363544 194.85 86.87888
0.363822 182.21 86.644379
0.364101 14.25 86.668423
0.364379 138.23 86.470087
0.364658 116.71 86.715717
0.364936 118.84 86.394364
0.365215 144.11 86.702445
0.365494 -64.99 86.527042
0.365772 4.15 86.541753
0.366051 48.24 86.784478
0.366329 135.14 86.531401
0.366608 -23.08 86.656277
0.366886 -39.48 86.483468
0.367165 -69.65 86.287932
0.367444 -40.67 86.860181
0.367722 139.87 86.182182
0.368001 -20.69 86.224018
0.368279 23.49 86.932565
0.368558 7.45 85.969525
0.368836 8.23 86.857998
0.369115 33.04 86.294318
0.369394 160.68 86.784009
0.369672 50.83 86.757738
0.369951 -1.91 86.686261
0.370229 54.68 86.616236
0.370508 21.09 86.766157
0.370786 94.71 86.807782
0.371065 24.46 86.562004
0.371344 151.68 86.728182
0.371622 6.15 86.516729
0.371901 -2.46 86.512021
0.372179 54.3 86.337947
0.372458 41.49 86.755744
0.372736 1.28 86.913623
0.373015 149.24 86.592407
0.373294 88.42 87.613825
0.373572 -105.63 88.906922
0.373851 185.61 89.047669
0.374129 59.71 89.964263
0.374408 128.08 90.355598
0.374686 76.91 90.537813
0.374965 45.91 90.819115
0.375244 115.61 91.892154
0.375522 57.85 91.31181
0.375801 143.07 91.390555
0.376079 268.01 91.931341
0.376358 117.69 91.920458
0.376636 26.9 92.741268
0.376915 78.93 91.901601
0.377194 66.68 92.920056
0.377472 -94.24 93.350452
0.377751 11.08 92.954766
0.378029 18.33 94.594115
0.378308 111.52 93.356233
0.378586 319.43 94.279922
0.378865 72.05 94.320191
0.379144 151.4 93.915701
0.379422 -12.96 94.934895
0.379701 16.75 95.152206
0.379979 -33.85 94.245393
0.380258 -15.65 92.831207
0.380536 23.05 92.147095
0.380815 -17.9 92.007731
0.381093 68.97 91.68867
0.381372 -76.57 91.627768
0.381651 -61.16 91.272725
0.381929 104.61 90.886231
0.382208 135.55 90.535641
0.382486 26.13 90.993878
0.382765 -57.36 90.388917
0.383043 185.04 91.02581
0.383322 83.45 90.48746
0.383601 38.55 90.418488
0.383879 0.19 90.151057
0.384158 69.44 90.241348
0.384436 151.59 89.97482
0.384715 123.09 90.4475
0.384993 59.89 89.327673
0.385272 27.2 89.618586
0.385551 175.34 89.31986
0.385829 -53.07 89.415056
0.386108 28.16 89.708149
0.386386 39.18 88.584615
0.386665 24.89 89.545751
0.386943 31.82 88.882187
0.387222 85.29 89.375656
0.387501 -69.48 89.149057
0.387779 -86.48 88.988156
0.388058 18.16 89.789258
0.388336 82.35 88.979978
0.388615 58.31 88.649767
0.388893 73.27 89.067373
0.389172 53.3 88.783046
0.389451 90.81 89.049344
0.389729 215.85 88.174521
0.390008 109.4 88.706918
0.390286 -26.63 88.35836
0.390565 -146.52 87.866596
0.390843 113.43 88.397824
0.391122 15.89 87.920324
0.391401 87.19 88.629757
0.391679 75.84 87.953479
0.391958 -40.28 88.293823
0.392236 98.2 88.306628
0.392515 17.35 88.050367
0.392793 102.01 88.134502
0.393072 -48.16 88.171922
0.393351 43.55 87.7337
0.393629 136.29 88.371916
0.393908 30.03 87.468775
0.394186 46.86 88.50325
0.394465 117.45 88.085008
0.394743 3.81 88.194239
0.395022 -55.24 87.937556
0.395301 85.43 88.124764
0.395579 137.07 88.382649
0.395858 -26.03 87.948352
0.396136 63.32 88.472274
0.396415 68.42 88.267853
0.396693 -31.75 87.95103
0.396972 139.46 88.431852
0.397251 6.68 88.230389
0.397529 145.96 88.343272
0.397808 218.55 88.37251
0.398086 28.53 87.97824
0.398365 64.74 88.34531
0.398643 -7.26 88.266924
0.398922 78.73 88.337422
0.399201 126.23 88.601996
0.399479 192.01 88.245761
0.399758 236.97 88.816106
0.400036 -42.78 88.328586
0.400315 14.92 88.387044
0.400593 186.3 88.560247
0.400872 184.06 88.966967
0.401151 -42.86 88.260984
0.401429 274.55 88.263367
0.401708 22.6 88.521466
0.401986 108.14 88.796035
0.402265 18.84 88.498605
0.402543 33.37 88.507414
0.402822 32.1 88.485657
0.403101 -27.56 88.299007
0.403379 2.17 88.548516
0.403658 81.29 88.75757
0.403936 113.34 88.036974
0.404215 231.41 89.034914
0.404493 38.51 88.596093
0.404772 43.34 88.389871
0.405051 -9.08 88.758406
0.405329 -55.59 88.258488
0.405608 218.55 89.495302
0.405886 74.11 88.508007
0.406165 99.46 88.838815
0.406443 56.19 88.343181
0.406722 51.06 88.997298
0.407001 239.43 88.712962
0.407279 29.7 88.495991
0.407558 216.35 88.492783
0.407836 -80.89 88.696184
0.408115 -47.69 88.591961
0.408393 15.52 88.921363
0.408672 33.22 88.348516
0.408951 64.47 89.150167
0.409229 -50.41 88.575231
0.409508 102.77 88.624483
0.409786 23.16 88.506617
0.410065 77.39 88.048441
0.410343 135.61 88.605105
0.410622 7.6 88.470342
0.410901 164.31 88.477806
0.411179 92.85 88.760998
0.411458 67.82 88.288032
0.411736 21.24 88.461332
0.412015 226.33 88.334285
0.412293 -26.48 88.748828
0.412572 166.86 88.396575
0.412851 152.62 88.33653
0.413129 90.33 88.228361
0.413408 51.35 88.266461
0.413686 91.14 88.70539
0.413965 9.39 88.581269
0.414243 159.93 88.685749
0.414522 10.85 88.121787
0.414801 37.81 88.158624
0.415079 58.82 88.697125
0.415358 29.24 88.171606
0.415636 69.21 88.572498
0.415915 73.94 88.192182
0.416193 66.35 88.537853
0.416472 54.63 88.457321
0.416751 48.48 87.873437
0.417029 -21.42 88.384502
0.417308 1.46 87.977322
0.417586 47.05 87.790612
0.417865 -106.12 87.983334
0.418143 51.67 87.819965
0.418422 122.9 88.417002
0.4187 66.25 87.789021
0.418979 7.1 87.923624
0.419258 79.47 88.01249
0.419536 7.33 87.704325
0.419815 139.5 88.167049
0.420093 -60.33 88.049582
0.420372 -35.46 88.315546
0.42065 121.39 88.209149
0.420929 39.69 87.682299
0.421208 18.66 88.117065
0.421486 88.56 87.784829
0.421765 109.67 88.557777
0.422043 66.22 87.991332
0.422322 140.05 88.547196
0.4226 113.12 88.541703
0.422879 -36.93 87.972727
0.423158 -89.18 88.564824
0.423436 241.15 88.400873
0.423715 1.8 88.7622
0.423993 49.03 88.412958
0.424272 69.57 88.407704
0.42455 -47.74 88.317
0.424829 -43.63 88.53703
0.425108 -128.13 88.465969
0.425386 219.73 88.696621
0.425665 78.89 88.434786
0.425943 15.29 88.377268
0.426222 51.56 88.55506
0.4265 109.52 88.369445
0.426779 0.68 88.836416
0.427058 -123.25 88.165067
0.427336 2.54 88.539131
0.427615 -10.93 88.790122
0.427893 70.73 88.669875
0.428172 33.79 88.666025
0.42845 116.72 89.14049
0.428729 38.23 88.365051
0.429008 156.04 88.882123
0.429286 -15.28 88.395579
0.429565 5.86 89.159346
0.429843 15.75 88.935231
0.430122 -42.23 88.477021
0.4304 -12.34 88.731663
0.430679 238.65 88.55579
0.430958 107.23 88.841386
0.431236 77.08 88.688804
0.431515 57.7 88.626601
0.431793 -32.92 89.266077
0.432072 38.1 88.358764
0.43235 -13.41 90.165908
0.432629 133.35 91.475428
0.432908 81.37 91.902682
0.433186 294.02 93.417341
0.433465 99.52 92.740338
0.433743 275.82 93.722682
0.434022 -70.98 93.548104
0.4343 132.66 94.247502
0.434579 -77.91 95.015091
0.434858 -82.77 94.442477
0.435136 260.28 95.780516
0.435415 93.07 95.830819
0.435693 -52.02 95.528153
0.435972 48.66 97.560977
0.43625 -19.25 96.561418
0.436529 134.23 97.53227
0.436808 45.97 98.027102
0.437086 81.39 97.728099
0.437365 -38.6 98.910775
0.437643 70.84 97.819764
0.437922 8.28 98.799519
0.4382 90.25 98.913813
0.438479 130.2 99.692355
0.438758 186.84 99.995065
0.439036 241.27 97.994689
0.439315 96.94 97.341054
0.439593 99.18 96.21979
0.439872 86.28 95.929663
0.44015 233.68 95.256731
0.440429 -4.84 94.766511
0.440708 -120.09 94.477491
0.440986 103.67 94.551774
0.441265 9.72 95.025414
0.441543 169.44 94.947395
0.441822 150.35 94.319468
0.4421 70.52 93.979781
0.442379 111.11 94.053493
0.442658 -31.97 93.760665
0.442936 70.33 93.704032
0.443215 7.66 93.683928
0.443493 -38.62 93.060962
0.443772 155.05 93.263687
0.44405 89.89 93.213397
0.444329 81.18 93.272841
0.444608 -48.88 93.327749
0.444886 51.14 93.209171
0.445165 132.51 93.245341
0.445443 59 93.619201
0.445722 93.93 93.140289
0.446 -134.37 93.727383
0.446279 161.46 92.945798
0.446558 -22.15 92.753635
0.446836 -86.33 93.512373
0.447115 54.77 92.483451
0.447393 1.6 92.947359
0.447672 70.95 92.336605
0.44795 137.47 92.696365
0.448229 121.91 92.36803
0.448508 51.52 92.180837
0.448786 87.07 92.214253
0.449065 -11.09 92.34909
0.449343 -29.21 91.633086
0.449622 57.94 92.42776
0.4499 207.52 91.944484
0.450179 -6.68 92.318312
0.450458 87.02 91.933628
0.450736 -99.98 92.090159
0.451015 -51.36 91.534471
0.451293 76.74 91.560215
0.451572 5.65 91.721102
0.45185 -77.49 91.377479
0.452129 144.77 91.176588
0.452408 14.2 91.432552
0.452686 131.61 91.652624
0.452965 118.73 91.185448
0.453243 114.34 91.790189
0.453522 72.11 91.461302
0.4538 -70.15 91.588452
0.454079 -9.96 91.871443
0.454357 134.2 90.962806
0.454636 113.49 91.341529
0.454915 -59.65 92.174591
0.455193 26.86 91.075345
0.455472 37.5 91.449838
0.45575 109.85 91.041658
0.456029 219.15 91.686905
0.456307 102.92 91.839838
0.456586 35.51 90.994987
0.456865 159.62 91.58722
0.457143 51.5 90.98912
0.457422 59.78 91.721026
0.4577 126.75 91.25494
0.457979 138.12 91.258244
0.458257 48.09 91.595629
0.458536 138.35 91.205733
0.458815 126.25 91.431075
0.459093 44 91.261782
0.459372 87.36 91.232841
0.45965 145.35 91.288164
0.459929 42.7 90.876844
0.460207 -102.64 91.735748
0.460486 -84.14 91.242573
0.460765 94.62 91.844929
0.461043 8.89 91.714201
0.461322 102.47 91.65541
0.4616 223.76 91.358829
0.461879 -40.54 91.099236
0.462157 -77.59 91.819953
0.462436 42.34 90.598577
0.462715 158 91.320525
0.462993 61.61 91.235812
0.463272 42.8 91.046032
0.46355 36.21 91.88365
0.463829 46.91 90.881392
0.464107 142.52 91.457613
0.464386 156.48 91.632795
0.464665 -45.26 90.726938
0.464943 107.62 91.435334
0.465222 121 90.72764
0.4655 77.27 91.877743
0.465779 -17.82 91.558194
0.466057 35.73 91.101091
0.466336 155.48 91.395676
0.466615 119.88 90.840469
0.466893 81.98 92.005475
0.467172 -0.68 91.264263
0.46745 21.64 91.398539
0.467729 27.62 91.728624
0.468007 164.59 91.086264
0.468286 338.2 91.312746
0.468565 96.61 91.471876
0.468843 216.45 90.978129
0.469122 5.17 91.523724
0.4694 259.97 91.197034
0.469679 106.18 91.297347
0.469957 101.22 90.421062
0.470236 117.45 91.367562
0.470515 -23.15 90.882849
0.470793 -11.76 90.933985
0.471072 75.77 91.056975
0.47135 -2.62 90.72879
0.471629 95.07 90.984224
0.471907 2.06 90.790172
0.472186 146.8 91.20209
0.472465 190.09 91.077678
0.472743 174.54 91.464603
0.473022 -79.72 90.783239
0.4733 93.05 90.922619
0.473579 222.81 90.992863
0.473857 120.34 91.01281
0.474136 142.33 91.142106
0.474415 -12.03 91.338687
0.474693 262.19 90.592024
0.474972 66.59 91.491654
0.47525 -57.09 90.784573
0.475529 151.54 91.158865
0.475807 90.58 91.462133
0.476086 88.08 91.081908
0.476365 117.25 91.794933
0.476643 -72.02 91.119026
0.476922 63.45 91.261246
0.4772 -66.79 91.498347
0.477479 150.39 91.08661
0.477757 -51.34 91.531639
0.478036 -50.92 90.67541
0.478315 185.32 91.585489
0.478593 121.74 91.253927
0.478872 203.35 91.376724
0.47915 8.59 92.027487
0.479429 25.36 90.665584
0.479707 -21.94 91.898302
0.479986 137.13 91.35923
0.480265 199.52 91.21766
0.480543 -81.6 91.604969
0.480822 -28.67 91.564652
0.4811 134.06 91.520396
0.481379 -0.05 91.171099
0.481657 299 91.62942
0.481936 280.15 91.522722
0.482215 -23.91 91.500434
0.482493 109.88 91.620238
0.482772 44.33 90.924757
0.48305 59.98 91.852122
0.483329 -75.24 91.646343
0.483607 132.88 91.211619
0.483886 186.64 91.590867
0.484165 72.72 90.875828
0.484443 124.34 91.067853
0.484722 188.67 90.997531
0.485 -3.87 91.451216
0.485279 51.38 90.854083
0.485557 -79.53 91.291765
0.485836 7.86 91.57325
0.486115 154.39 90.500726
0.486393 64.02 90.865975
0.486672 131.34 91.112927
0.48695 -0.72 90.757693
0.487229 -243.44 91.090556
0.487507 66.6 90.954465
0.487786 4.73 91.124245
0.488065 -53.91 90.325824
0.488343 37.48 91.314632
0.488622 -36.55 91.010292
0.4889 207.75 90.726365
0.489179 81.49 91.39802
0.489457 10.78 90.496445
0.489736 -58.5 91.302908
0.490014 149.36 90.435162
0.490293 -50.63 91.28167
0.490572 85.76 90.830376
0.49085 -60.61 90.464299
0.491129 140.57 90.756946
0.491407 161.51 91.846686
0.491686 -19.73 93.491118
0.491964 32.33 94.063284
0.492243 110.66 94.182364
0.492522 63.85 95.87131
0.4928 16.92 95.596719
0.493079 23.3 96.201359
0.493357 44.2 96.781837
0.493636 71.27 96.42677
0.493914 62.32 97.812081
0.494193 176.72 97.165671
0.494472 169.83 98.662813
0.49475 105.19 98.637249
0.495029 65.05 98.028047
0.495307 75.37 99.84912
0.495586 168.82 99.467158
0.495864 25.28 100.04592
0.496143 126.07 100.25004
0.496422 149.55 101.13976
0.4967 5.68 101.5788
0.496979 -53.26 101.42275
0.497257 215.69 102.17962
0.497536 243.46 102.20766
0.497814 33.59 102.84139
0.498093 152.37 101.10463
0.498372 233.96 99.31536
0.49865 27.16 99.672916
0.498929 -33.73 98.008321
0.499207 168.75 98.142794
0.499486 136.15 97.461992
0.499764 280.35 97.536939
0.500043 55.18 97.695252
0.500322 199.52 97.104755
0.5006 38.18 96.634819
0.500879 88.27 96.370318
0.501157 -81.05 96.509149
0.501436 58.36 96.138107
0.501714 -46.66 95.932368
0.501993 -92.2 96.115727
0.502272 142.31 95.894319
0.50255 7.46 95.460376
0.502829 169.15 95.044554
0.503107 132.88 95.920887
0.503386 89.42 96.236757
0.503664 144.61 94.917307
0.503943 101.46 95.945229
0.504222 30.52 94.230924
0.5045 -66.7 95.766641
0.504779 34.17 95.191182
0.505057 75.92 94.981062
0.505336 109.82 95.089756
0.505614 74.44 94.153373
0.505893 -48.01 95.19061
0.506172 76.75 94.790286
0.50645 -4.16 94.581044
0.506729 79.79 95.535424
0.507007 -3.3 94.649365
0.507286 -37.99 94.977428
0.507564 199.38 94.400198
0.507843 160.72 94.914097
0.508122 -7.82 95.178725
0.5084 147.75 94.236692
0.508679 83.45 95.334438
0.508957 146.65 94.069078
0.509236 34.41 95.070423
0.509514 72.03 94.839662
0.509793 75.54 94.418064
0.510072 -3.34 94.92835
0.51035 53.99 94.240152
0.510629 -112.14 94.774286
0.510907 -45.31 94.426442
0.511186 203.87 94.21481
0.511464 204.15 94.610691
0.511743 9.12 94.178102
0.512022 -14.57 94.428758
0.5123 160.93 94.214614
0.512579 -14.58 94.54322
0.512857 -26.75 94.217322
0.513136 13.59 94.325193
0.513414 167.5 94.415958
0.513693 -69.88 94.340462
0.513972 87.72 94.720537
0.51425 69.05 93.887507
0.514529 152.92 94.008457
0.514807 106.12 94.480685
0.515086 138 94.792481
0.515364 109.35 94.274462
0.515643 88.14 93.949455
0.515922 123.83 94.001402
0.5162 -89.22 93.999911
0.516479 258.34 94.366656
0.516757 79.21 93.808842
0.517036 161.85 93.997554
0.517314 135.28 94.345547
0.517593 131.65 94.364372
0.517872 49.89 93.910448
0.51815 125.89 94.617798
0.518429 92.21 93.971353
0.518707 83.35 94.765373
0.518986 -1.11 93.445411
0.519264 129.19 94.35971
0.519543 -43.11 94.037911
0.519822 133.08 93.832219
0.5201 -3.42 94.040374
0.520379 117.96 93.787087
0.520657 110.84 94.123269
0.520936 89.39 93.747371
0.521214 -6.93 94.207974
0.521493 -28.58 93.845138
0.521772 48.09 94.348785
0.52205 97.51 94.340984
0.522329 169.56 94.12503
0.522607 41.23 93.976251
0.522886 158.54 93.969364
0.523164 200.04 94.001577
0.523443 240.79 94.002287
0.523722 45.88 93.911407
0.524 70.75 93.632635
0.524279 147.88 93.378464
0.524557 226.29 93.735118
0.524836 99.83 93.712098
0.525114 61.61 92.976143
0.525393 174.37 93.145063
0.525671 60.52 93.379513
0.52595 41.68 93.12323
0.526229 119.67 93.142151
0.526507 45.97 93.241718
0.526786 21.7 93.154053
0.527064 -3.16 93.348491
0.527343 161.03 92.96957
0.527621 166.49 92.782674
0.5279 27.67 93.413374
0.528179 187.5 92.507271
0.528457 105.06 93.043266
0.528736 34.68 93.047194
0.529014 73.25 92.938207
0.529293 -24.18 93.1588
0.529571 200.32 93.018871
0.52985 123.57 93.348773
0.530129 86.06 92.745196
0.530407 27.43 92.799636
0.530686 3.12 93.423252
0.530964 95.76 93.224534
0.531243 -43.19 93.076243
0.531521 207.36 92.930344
0.5318 127.38 93.174975
0.532079 143.2 93.596942
0.532357 163.76 93.033717
0.532636 40.72 92.951042
0.532914 59.15 93.390594
0.533193 310.97 93.389155
0.533471 49.76 93.106449
0.53375 133.22 93.080723
0.534029 -143.58 93.572067
0.534307 174.76 93.00619
0.534586 -4.69 93.289837
0.534864 -173.61 93.158993
0.535143 -25.16 93.231127
0.535421 70.44 92.928343
0.5357 49.68 93.500141
0.535979 135.56 93.495393
0.536257 -222.75 93.186909
0.536536 27.52 93.568396
0.536814 33.87 92.540263
0.537093 8.4 93.471796
0.537371 -56.15 92.91173
0.53765 -32.46 93.459501
0.537929 -54.07 92.639094
0.538207 -13.99 92.840806
0.538486 111.86 92.764842
0.538764 -9.49 93.452299
0.539043 134.88 92.694778
0.539321 -37.74 92.804018
0.5396 66.68 92.683914
0.539879 90.32 93.076808
0.540157 114.09 92.76959
0.540436 65.86 92.745295
0.540714 124.69 92.653191
0.540993 102.1 92.360077
0.541271 81.26 92.899461
0.54155 258.37 92.547051
0.541829 40.1 92.573637
0.542107 158.49 92.525558
0.542386 58.35 92.434125
0.542664 35.38 92.347637
0.542943 59.84 92.642471
0.543221 89.83 92.265807
0.5435 31.18 92.229507
0.543779 35.55 92.107375
0.544057 -163.48 92.348278
0.544336 157 91.997179
0.544614 144.51 92.423078
0.544893 77.74 92.198468
0.545171 248.61 91.900255
0.54545 159.84 92.472627
0.545729 185.85 91.973524
0.546007 0.61 92.418039
0.546286 165.8 92.409514
0.546564 3.89 92.020842
0.546843 238.15 92.397285
0.547121 11.28 92.180365
0.5474 49.8 92.105432
0.547679 66.78 92.51245
0.547957 54.03 92.36148
0.548236 46.26 92.539037
0.548514 136.27 92.083184
0.548793 24.26 92.142927
0.549071 140.94 92.508255
0.54935 -30.41 92.595195
0.549629 34.8 92.293447
0.549907 147.4 92.132148
0.550186 210.24 92.603836
0.550464 15.32 94.210973
0.550743 -52.18 95.854869
0.551021 106.13 97.029769
0.5513 81.19 97.629272
0.551579 173.53 97.761239
0.551857 250.39 98.850292
0.552136 80.27 98.765027
0.552414 50.03 99.838391
0.552693 -19.16 100.1418
0.552971 92.4 101.15878
0.55325 88.8 100.98889
0.553529 24.89 101.51108
0.553807 152.9 102.30896
0.554086 109.57 102.08417
0.554364 5.02 102.75479
0.554643 120.78 103.96611
0.554921 45.7 103.22141
0.5552 122.79 104.2292
0.555479 195.5 104.99822
0.555757 147.68 105.49233
0.556036 -73.54 105.30315
0.556314 157.05 105.76956
0.556593 -10.46 106.39501
0.556871 297.6 106.39977
0.55715 35.74 104.60446
0.557429 97.57 103.70481
0.557707 118.78 103.02607
0.557986 -115.02 101.54096
0.558264 160.65 101.33883
0.558543 -3.29 100.26256
0.558821 25.05 100.71424
0.5591 7.78 100.38746
0.559379 -61.87 100.0564
0.559657 -43.36 99.665557
0.559936 -5.66 98.998568
0.560214 -14.78 99.782212
0.560493 -66.88 98.99141
0.560771 18.44 98.989026
0.56105 -208.88 99.172454
0.561329 -53.05 99.006905
0.561607 56.07 98.785214
0.561886 194.72 98.292705
0.562164 -25.49 98.654233
0.562443 79.23 98.891794
0.562721 165.93 98.376727
0.563 12.87 97.826481
0.563278 223.49 97.989538
0.563557 7.91 98.209532
0.563836 58.69 98.135952
0.564114 34.87 97.710276
0.564393 5.63 97.387646
0.564671 244.78 97.912133
0.56495 -8.49 97.756583
0.565228 30.82 98.053648
0.565507 137.53 97.451346
0.565786 42.3 97.749412
0.566064 -2.16 97.977607
0.566343 92.43 97.728852
0.566621 181.73 97.656518
0.5669 101.32 97.626675
0.567178 3.67 97.656852
0.567457 94.35 97.499704
0.567736 24.36 97.08174
0.568014 117.24 97.122745
0.568293 74.85 97.18919
0.568571 21.68 96.735126
0.56885 103.59 97.324566
0.569128 154.26 96.463318
0.569407 -76.25 96.988938
0.569686 75.5 96.647328
0.569964 40.38 96.332515
0.570243 52.91 96.618746
0.570521 60.45 96.618969
0.5708 85.04 96.639295
0.571078 5.39 96.042922
0.571357 -7.92 96.133104
0.571636 137.09 96.24776
0.571914 167.2 96.312356
0.572193 -102.1 96.129208
0.572471 22.39 96.208499
0.57275 93.07 96.306832
0.573028 307.12 96.059983
0.573307 86.46 96.069041
0.573586 124.95 95.9025
0.573864 19.25 95.892433
0.574143 5.44 96.142819
0.574421 2.22 95.967096
0.5747 123.14 96.043647
0.574978 143.76 95.419956
0.575257 160.11 96.691441
0.575536 84.36 95.685964
0.575814 -49.74 95.610458
0.576093 58.59 96.05949
0.576371 121.66 95.681402
0.57665 139.07 96.273691
0.576928 52.79 95.499018
0.577207 158.01 95.794386
0.577486 114.84 95.737716
0.577764 69.34 95.795716
0.578043 -118.88 95.764863
0.578321 33.19 96.081907
0.5786 -62.04 95.414948
0.578878 -6.29 96.115525
0.579157 134.43 95.624086
0.579436 -55.23 96.000438
0.579714 20.37 95.202757
0.579993 104.57 95.35524
0.580271 55.5 96.020965
0.58055 38.5 95.599827
0.580828 -77.53 95.205991
0.581107 8.37 95.164171
0.581386 93.02 95.272055
0.581664 139.86 95.306459
0.581943 91.77 95.048606
0.582221 119.49 95.439924
0.5825 -0.95 95.238117
0.582778 23.57 95.457794
0.583057 132.7 95.565374
0.583336 -126.06 95.05401
0.583614 154.08 95.547131
0.583893 -227.05 95.111036
0.584171 255.31 95.059703
0.58445 -16.92 95.290645
0.584728 87.84 95.459308
0.585007 92.67 95.645047
0.585286 168.38 95.386525
0.585564 90.08 95.244581
0.585843 101.61 95.542393
0.586121 96.68 95.442764
0.5864 -307.12 95.58479
0.586678 166.67 95.110435
0.586957 -47.08 95.225034
0.587236 338.31 95.195104
0.587514 58.01 95.242048
0.587793 -27.74 94.986276
0.588071 32.87 94.943285
0.58835 56.69 95.281638
0.588628 101.07 95.009377
0.588907 110.54 94.6704
0.589186 140.23 95.029256
0.589464 -105.39 94.884585
0.589743 -22.92 94.909071
0.590021 152.92 94.542343
0.5903 104.23 94.272869
0.590578 8.44 95.358884
0.590857 30.12 94.633599
0.591136 59.04 94.707286
0.591414 78.13 94.901873
0.591693 102.11 94.154809
0.591971 -14.93 94.954929
0.59225 5.32 94.666628
0.592528 166.63 94.461259
0.592807 101.7 94.399238
0.593086 115.09 94.48414
0.593364 54.39 94.847128
0.593643 161.53 94.730036
0.593921 190.35 94.763063
0.5942 65.37 94.979062
0.594478 198.71 94.556055
0.594757 85.98 94.692272
0.595036 62.9 94.669943
0.595314 108.07 94.883029
0.595593 107.21 94.686253
0.595871 56.19 94.207408
0.59615 -52 94.734073
0.596428 47.12 94.774105
0.596707 16.12 94.933307
0.596986 118.09 94.478715
0.597264 60.67 94.287338
0.597543 75.75 94.819356
0.597821 -4.39 94.211099
0.5981 -24.53 94.17025
0.598378 124.1 94.461193
0.598657 98.89 94.558312
0.598935 42.1 94.127025
0.599214 153.98 94.23931
0.599493 72.41 94.289192
0.599771 90.46 93.934647
0.60005 207.61 94.621513
0.600328 188.1 94.076141
0.600607 68.36 94.568703
0.600885 -40.54 94.307502
0.601164 138.7 94.059578
0.601443 -7.3 94.473247
0.601721 41.76 94.579046
0.602 -24.16 94.111605
0.602278 172.58 94.81912
0.602557 75.22 94.249157
0.602835 60.6 94.784765
0.603114 86.01 94.210918
0.603393 -12.29 94.553361
0.603671 131.34 94.932985
0.60395 31.86 94.16157
0.604228 161.62 94.765883
0.604507 191.09 94.473742
0.604785 142.15 94.920711
0.605064 117.62 94.591132
0.605343 267.44 94.912922
0.605621 199.35 94.84009
0.6059 120.26 94.424517
0.606178 3.66 94.93331
0.606457 -18.98 94.620951
0.606735 78.07 94.543507
0.607014 55.03 94.752269
0.607293 169.39 95.365265
0.607571 -11.6 94.743163
0.60785 -43.82 94.912437
0.608128 30.03 94.243614
0.608407 232.46 95.225099
0.608685 2.99 94.59882
0.608964 27.11 94.715665
0.609243 50.01 94.686463
0.609521 127.48 96.827694
0.6098 119.82 98.332627
0.610078 -55.83 99.406216
0.610357 95.27 100.06798
0.610635 168.59 101.26735
0.610914 218.96 101.42184
0.611193 40.61 101.90702
0.611471 38.76 102.18531
0.61175 304.32 103.08654
0.612028 55.55 104.37117
0.612307 -65.58 103.97488
0.612585 -101.51 104.13458
0.612864 59.28 105.38234
0.613143 2.56 105.92459
0.613421 6.35 105.79078
0.6137 182.92 107.13187
0.613978 -1.74 106.47947
0.614257 -19.45 107.2339
0.614535 148.78 107.86988
0.614814 -51.48 107.95294
0.615093 255.01 108.55197
0.615371 -99.74 109.25864
0.61565 111.4 109.10182
0.615928 39.04 109.06564
0.616207 157.68 107.62302
0.616485 246.3 105.46884
0.616764 21.21 104.7009
0.617043 -26.55 103.37473
0.617321 -26.35 102.86291
0.6176 38.2 103.03973
0.617878 -144.84 102.42515
0.618157 99.46 102.34945
0.618435 -130.21 101.62608
0.618714 171.48 101.62315
0.618993 75.27 101.66618
0.619271 32.11 100.74144
0.61955 147.39 101.59379
0.619828 59.63 100.44072
0.620107 81.16 100.90415
0.620385 212.4 100.56261
0.620664 146.83 100.54726
0.620943 -73.43 100.14879
0.621221 74.78 100.37631
0.6215 -129.58 100.19711
0.621778 85.44 100.36948
0.622057 18.1 99.786352
0.622335 51.25 99.731897
0.622614 10.79 99.906998
0.622893 59.26 99.61953
0.623171 75.97 99.852247
0.62345 81.22 99.744392
0.623728 -29.78 99.919684
0.624007 83.64 99.796963
0.624285 86.56 99.516683
0.624564 175.65 99.161645
0.624843 113.78 99.421801
0.625121 127.06 99.296198
0.6254 -51.29 99.68835
0.625678 143.6 98.908167
0.625957 -133.2 99.665298
0.626235 2.66 99.232762
0.626514 -87.45 98.70035
0.626793 -179.6 99.160102
0.627071 117.84 98.668128
0.62735 81.12 99.277727
0.627628 138.73 98.745307
0.627907 -107.01 98.494001
0.628185 220.36 98.94293
0.628464 77.53 99.295043
0.628743 136.48 98.52495
0.629021 84.33 99.116464
0.6293 116.95 98.521822
0.629578 -71.86 98.762375
0.629857 23.03 99.013752
0.630135 185.07 98.852136
0.630414 -37.99 98.798553
0.630693 -147.95 98.510734
0.630971 140.92 99.384847
0.63125 -92.58 98.314038
0.631528 118.62 98.638856
0.631807 69.1 99.080062
0.632085 74.07 98.642325
0.632364 -9.35 98.929599
0.632643 128.31 98.615358
0.632921 -110.68 98.804318
0.6332 36.56 98.879375
0.633478 -35.34 98.575156
0.633757 -154.49 98.783529
0.634035 -10.93 98.265062
0.634314 12.16 98.357877
0.634592 166.09 98.429387
0.634871 23.15 98.544181
0.63515 27.83 98.126125
0.635428 17.61 99.030124
0.635707 41.46 97.907045
0.635985 200.68 98.271682
0.636264 84.27 97.615513
0.636542 27.94 97.616159
0.636821 161.65 98.466906
0.6371 214.15 97.431231
0.637378 194.57 98.017037
0.637657 75.01 97.727811
0.637935 -52.16 97.609896
0.638214 71.93 98.016633
0.638492 51.45 97.21313
0.638771 146.73 97.458441
0.63905 98.45 97.573275
0.639328 -16.34 97.311979
0.639607 -3.29 97.437265
0.639885 -92.09 97.252062
0.640164 141.01 97.176281
0.640442 -94.14 97.314463
0.640721 110.61 96.710902
0.641 -126.34 96.718098
0.641278 85.07 97.429278
0.641557 -161.76 96.558086
0.641835 -12.64 96.666095
0.642114 -100.41 97.010604
0.642392 227.05 97.188658
0.642671 101.67 97.245072
0.64295 221.31 96.925032
0.643228 29.76 96.833553
0.643507 95.08 96.448103
0.643785 26.19 97.058589
0.644064 -18.16 96.874992
0.644342 126.36 97.245098
0.644621 53.3 96.695401
0.6449 -48.09 97.12584
0.645178 -201.96 97.314319
0.645457 211.46 97.13923
0.645735 252.14 96.956939
0.646014 218.45 97.157654
0.646292 -74.11 97.133282
0.646571 121.46 96.946493
0.64685 92.25 97.274881
0.647128 -86.54 97.340009
0.647407 83.2 96.834199
0.647685 248.27 96.856994
0.647964 109.71 97.339191
0.648242 94.42 96.782663
0.648521 185.83 97.047716
0.6488 33.54 96.991156
0.649078 47.67 96.83926
0.649357 -40.5 97.127166
0.649635 -19.31 96.784877
0.649914 0.97 97.230673
0.650192 -50.45 97.252403
0.650471 -34.05 96.902531
0.65075 136.49 96.937265
0.651028 -78.16 97.269535
0.651307 117.32 97.019103
0.651585 -65.57 96.601241
0.651864 81.78 96.696066
0.652142 173.58 97.261011
0.652421 131.65 96.274486
0.6527 -45.92 97.12793
0.652978 118.96 96.624845
0.653257 118.68 96.603422
0.653535 -119.61 96.398167
0.653814 205.69 96.801425
0.654092 71.93 96.27208
0.654371 45.53 97.132433
0.65465 39.59 96.537102
0.654928 45.74 97.219805
0.655207 -31.27 96.647785
0.655485 124.91 96.935608
0.655764 68.89 97.092556
0.656042 228.76 96.466618
0.656321 -109.36 96.701497
0.6566 160.67 96.438294
0.656878 128.1 96.891769
0.657157 126.37 96.536043
0.657435 40.93 96.374618
0.657714 134.29 96.92729
0.657992 -105.32 97.169899
0.658271 83.36 96.915272
0.65855 86.11 97.038844
0.658828 -17.63 96.874343
0.659107 33.71 97.481809
0.659385 -11.54 97.128477
0.659664 192.69 97.22957
0.659942 -46.54 96.901294
0.660221 196.84 97.33169
0.6605 199.75 96.806465
0.660778 137.35 97.337216
0.661057 110.41 96.93221
0.661335 2.78 96.917748
0.661614 -186.75 97.397032
0.661892 103.18 97.154549
0.662171 87.26 96.732389
0.66245 132.39 97.156282
0.662728 207.73 97.314101
0.663007 195.2 96.560398
0.663285 113.11 97.00953
0.663564 131.89 96.637548
0.663842 231.86 96.667769
0.664121 128.43 96.706071
0.6644 122.48 97.136739
0.664678 23.77 96.624742
0.664957 -36.53 96.416601
0.665235 18.65 96.423634
0.665514 61.6 96.371386
0.665792 39.05 96.524391
0.666071 62.63 96.206432
0.66635 12.79 96.74397
0.666628 -37.13 96.196219
0.666907 66.68 96.283227
0.667185 9.76 96.129469
0.667464 74.4 96.635868
0.667742 -35.39 96.201984
0.668021 -84.59 96.521682
0.6683 -65.1 96.106829
0.668578 30 98.482287
0.668857 145.26 100.10379
0.669135 -77.04 101.10734
0.669414 156.93 102.14752
0.669692 -76.09 103.6547
0.669971 182.73 103.34319
0.67025 152.21 104.17434
0.670528 67.8 104.17979
0.670807 110.71 105.23691
0.671085 65.08 106.30374
0.671364 260.86 107.08367
0.671642 26.97 107.38684
0.671921 157.86 107.60655
0.672199 130.22 108.79435
0.672478 -21.51 108.56172
0.672757 52.71 109.43597
0.673035 1.41 110.45746
0.673314 139.61 111.11707
0.673592 64.25 110.92136
0.673871 30.84 112.5867
0.674149 156.12 111.8852
0.674428 -10.4 113.14392
0.674707 41.28 113.48837
0.674985 4.82 113.64109
0.675264 26.14 113.47402
0.675542 68.61 114.59547
0.675821 201.19 115.20132
0.676099 163.93 115.74972
0.676378 155.44 116.40298
0.676657 153.26 117.07663
0.676935 131.18 117.28683
0.677214 75.6 117.50717
0.677492 64.09 118.08732
0.677771 -142.95 117.99404
0.678049 56.6 119.91702
0.678328 28.1 119.40344
0.678607 -65.18 120.62542
0.678885 -38.06 120.5829
0.679164 22.84 120.96184
0.679442 -27.63 120.7111
0.679721 -85.34 123.46129
0.679999 41.85 122.52362
0.680278 10.73 123.30808
0.680557 57.46 123.91935
0.680835 -6.35 124.75865
0.681114 209.53 125.44965
0.681392 -11.39 125.03291
0.681671 31.99 126.0189
0.681949 95.94 126.58277
0.682228 21.29 126.13053
0.682507 90.06 127.15292
0.682785 161.48 127.11838
0.683064 -54.65 127.18897
0.683342 90.04 128.34182
0.683621 -61.41 128.14329
0.683899 132.5 127.83159
0.684178 -8.99 128.47625
0.684457 -36.26 129.43296
0.684735 117.43 130.07279
0.685014 85.7 129.92687
0.685292 -33.44 130.57692
0.685571 52.68 131.10753
0.685849 8 132.31862
0.686128 50.2 132.19677
0.686407 -88.43 132.32467
0.686685 143.42 134.01206
0.686964 -3.66 134.74072
0.687242 98.24 133.48596
0.687521 -3.16 135.11749
0.687799 89.27 136.48279
0.688078 102.91 136.39866
0.688357 26.39 136.43226
0.688635 184.13 137.53435
0.688914 32.74 137.71457
0.689192 71.63 139.21894
0.689471 -114.09 138.01383
0.689749 -55.52 141.18767
0.690028 150 140.3549
0.690307 -159.64 141.96971
0.690585 -93.16 141.45906
0.690864 71.79 142.24233
0.691142 247.91 144.05502
0.691421 261.14 143.43432
0.691699 123.76 144.03659
0.691978 148.8 145.82688
0.692257 207.74 145.59588
0.692535 265.41 146.80701
0.692814 5.55 146.91916
0.693092 -147.09 145.60363
0.693371 4.81 147.96149
0.693649 198.13 147.62862
0.693928 -97.59 150.28523
0.694207 23.4 148.41313
0.694485 346.39 149.8857
0.694764 -66.71 150.9986
0.695042 -64.65 152.62393
0.695321 -105.99 151.6453
0.695599 411.37 153.792
0.695878 35.92 153.29467
0.696157 -14.61 154.92702
0.696435 -69.74 155.12419
0.696714 79.9 155.00257
0.696992 282.19 158.62049
0.697271 -11.06 157.54462
0.697549 15.64 158.10228
0.697828 -102.66 159.69363
0.698107 -24.97 159.50304
0.698385 364.43 161.48225
0.698664 -89 161.77974
0.698942 -191.36 162.45629
0.699221 41.24 164.17217
0.699499 201.63 163.98308
0.699778 138.53 166.6195
0.700057 -24.63 165.0439
0.700335 363.43 167.44554
0.700614 107.35 170.41869
0.700892 145.13 169.47935
0.701171 -129.01 171.07987
0.701449 32.14 171.72096
0.701728 379.22 172.12509
0.702007 -65.86 176.19556
0.702285 217.04 175.02068
0.702564 274.78 176.81408
0.702842 79.74 177.93457
0.703121 -115.31 180.31514
0.703399 354.43 181.14071
0.703678 20.63 181.54118
0.703957 -70.84 183.95803
0.704235 -174.22 185.94598
0.704514 251.03 186.62818
0.704792 -74.41 188.18889
0.705071 141.58 189.27328
0.705349 33.63 190.08798
0.705628 -60.16 195.96563
0.705907 -142.73 191.87216
0.706185 0.81 194.91622
0.706464 -86.07 198.27825
0.706742 80.56 196.94275
0.707021 -81.13 196.52383
0.707299 378.33 198.54945
0.707578 -170.24 198.8328
0.707856 189.96 201.86617
0.708135 141.44 201.36216
0.708414 167.37 199.60342
0.708692 231.87 201.79909
0.708971 61.69 203.63443
0.709249 -58.43 207.21928
0.709528 566.6 204.2462
0.709806 71.34 210.12425
0.710085 -38.2 213.09624
0.710364 223.76 214.36726
0.710642 179.18 213.94468
0.710921 148.3 218.15419
0.711199 130.69 222.60158
0.711478 -51.54 225.41529
0.711756 348.67 225.22284
0.712035 294.16 230.32155
0.712314 161.22 232.55851
0.712592 -135.98 233.79877
0.712871 238.07 240.65139
0.713149 262.27 236.3343
0.713428 34.07 245.0825
0.713706 -87.36 246.96877
0.713985 137.08 254.38892
0.714264 167.51 248.41803
0.714542 -514.59 255.26984
0.714821 -543.5 259.85558
0.715099 -33.7 262.79716
0.715378 -127.79 255.58027
0.715656 -458.11 257.64877
0.715935 -455.06 266.07605
0.716214 357.83 265.17875
0.716492 -420.99 269.75993
0.716771 -196.08 266.5095
0.717049 -325.55 273.66918
0.717328 384.27 278.23048
0.717606 184.47 278.11092
0.717885 508.89 277.23193
0.718164 -173.79 279.389
0.718442 -4.49 289.26131
0.718721 493.53 291.15621
0.718999 -195.02 284.16412
0.719278 170.56 295.69766
0.719556 -330.59 295.00573
0.719835 -269.38 299.42756
0.720114 613.83 298.85218
0.720392 78.07 299.23033
0.720671 273.66 308.23871
0.720949 -68.01 316.48935
0.721228 -444.89 307.23252
0.721506 5.35 315.17305
0.721785 366.39 324.53817
0.722064 669.43 327.95799
0.722342 -574.13 325.85748
0.722621 -570.22 327.45703
0.722899 -487.48 337.63051
0.723178 186.69 342.8709
0.723456 -370.73 343.51132
0.723735 -462.37 344.69813
0.724014 260.13 352.47627
0.724292 221.53 349.65989
0.724571 748.82 366.70161
0.724849 329.67 362.23275
0.725128 1012.23 370.56987
0.725406 453.55 375.81575
0.725685 -616.34 385.76614
0.725964 383.94 393.75993
0.726242 -153.6 395.41316
0.726521 -428.17 404.05245
0.726799 320.04 413.20361
0.727078 415.96 418.45997
0.727356 -254.66 441.74432
0.727635 -14.46 441.39182
0.727914 -577.65 456.2557
0.728192 335.35 463.12879
0.728471 -9.5 480.77588
0.728749 -387.13 485.35839
0.729028 -363.57 501.72885
0.729306 420.3 513.91052
0.729585 -787.62 540.26826
0.729864 1032.82 558.37151
0.730142 342.22 590.72766
0.730421 656.42 598.01275
0.730699 -239.96 622.23915
0.730978 -456.98 652.4431
0.731256 -936.98 666.26107
0.731535 -478.36 697.7362
0.731814 766.73 770.54829
0.732092 -499 802.73747
0.732371 472.89 856.4438
0.732649 125.98 953.8649
0.732928 741.06 1091.0517
0.733206 1496.48 1354.0164

