# Q [1/Ã…] I(Q) [a.u.] dI(Q) [a.u.]
0.00223785 7483 24899.177
0.00251642 11052 19248.94
0.00279499 2817 13643.915
0.00307356 -14285 10475.857
0.00335213 7681 7602.6489
0.0036307 18725 6349.1982
0.00390927 10844.1 4923.7853
0.00418784 20137.1 4166.2809
0.00446641 21128.3 3611.8933
0.00474498 20401.8 3126.5694
0.00502355 21347.8 2639.7922
0.00530212 19654.6 2337.3023
0.00558069 18046.7 2015.2025
0.00585926 19835.3 1855.462
0.00613783 22255.6 1640.4647
0.0064164 22254.1 1397.4662
0.00669497 19304.6 1378.7711
0.00697355 20723.08 1174.2222
0.00725212 21486.09 1126.8022
0.00753069 20884.35 1006.6523
0.00780926 20382.16 940.76988
0.00808783 19190.63 913.61049
0.0083664 19633.55 827.92626
0.00864497 20240.79 787.90237
0.00892354 21574.01 735.94545
0.00920211 18389.18 694.77123
0.00948068 19171.21 696.04093
0.00975925 18957.96 634.46273
0.0100378 19226.56 615.12884
0.0103164 20117.2 595.88427
0.010595 18571.03 569.14572
0.0108735 20820.75 558.07016
0.0111521 19911.43 534.76619
0.0114307 19588.81 537.14042
0.0117092 19717.08 502.63993
0.0119878 19516.28 488.45504
0.0122664 19719.54 486.78198
0.012545 18994.05 460.5282
0.0128235 19230.5 463.20863
0.0131021 19720.21 449.33791
0.0133807 19199.67 435.44291
0.0136592 19680.51 430.87854
0.0139378 19635.38 415.14812
0.0142164 19881.85 417.73184
0.0144949 20035.89 408.25068
0.0147735 19191.57 399.89058
0.0150521 19059.05 395.91639
0.0153307 19854.25 384.86845
0.0156092 19749.71 381.58153
0.0158878 19096.61 377.16077
0.0161664 19156.86 365.75737
0.0164449 18548.89 371.36163
0.0167235 19507.75 358.37656
0.0170021 19090.14 354.79953
0.0172806 18267.22 350.81996
0.0175592 18569.16 347.24652
0.0178378 18927.07 338.47131
0.0181164 19133.86 336.48864
0.0183949 18497.45 332.30828
0.0186735 18105.45 329.83065
0.0189521 19413.61 334.20099
0.0192306 18795.96 336.40508
0.0195092 19002.9 339.32359
0.0197878 18407.9 332.65443
0.0200664 18187.69 335.08834
0.0203449 18704.03 333.86006
0.0206235 18277.04 330.08972
0.0209021 17924.86 329.00395
0.0211806 17726.62 329.69876
0.0214592 18206.58 329.24456
0.0217378 18653.12 326.87924
0.0220163 18241.19 326.59096
0.0222949 18461.56 325.67585
0.0225735 17868.46 322.29882
0.0228521 17472.09 320.47223
0.0231306 17775.36 317.24782
0.0234092 17939 319.41168
0.0236878 17447.18 320.34916
0.0239663 17125.48 313.91069
0.0242449 17678.71 313.8563
0.0245235 17512.79 308.13511
0.024802 17403.7 311.4465
0.0250806 17918.19 312.82934
0.0253592 17602.71 304.99691
0.0256378 17057.08 300.98164
0.0259163 17364.82 293.53001
0.0261949 18039.84 295.30027
0.0264735 16854.87 286.22174
0.026752 17545.03 279.35882
0.0270306 17610.23 281.34039
0.0273092 17570.55 279.10947
0.0275877 16837.68 273.93262
0.0278663 17008.14 273.47153
0.0281449 16702.76 269.18359
0.0284235 16859.27 271.4164
0.028702 16720.22 264.12839
0.0289806 17090.78 262.69911
0.0292592 17025.21 264.12325
0.0295377 16296.19 257.15996
0.0298163 16010.68 255.48831
0.0300949 16576.39 253.41192
0.0303735 16310.42 251.73013
0.030652 16414.83 253.06516
0.0309306 16418.99 251.69234
0.0312092 16339.95 245.87879
0.0314877 16263.44 247.36871
0.0317663 15591.36 244.45695
0.0320449 15747.14 243.05282
0.0323234 16014.22 241.97411
0.032602 16038.51 239.10769
0.0328806 16302.9 238.8272
0.0331592 15814.58 237.51055
0.0334377 15927.62 236.86307
0.0337163 15899.85 237.92489
0.0339949 15363.46 237.14369
0.0342734 15785.65 243.92742
0.034552 15327.01 239.75502
0.0348306 15254.43 237.94491
0.0351091 15561.37 241.0561
0.0353877 15207.95 241.06928
0.0356663 15534.04 243.06085
0.0359449 15427.01 237.9496
0.0362234 15075.24 237.77103
0.036502 15136.72 238.97081
0.0367806 15103.56 239.1308
0.0370591 14669.89 241.29798
0.0373377 14728.4 235.82959
0.0376163 14664.34 236.22036
0.0378949 14594.7 236.48333
0.0381734 14517.91 233.83772
0.038452 14857.96 238.74081
0.0387306 14750.05 233.14688
0.0390091 14599.23 236.04196
0.0392877 14066.66 233.79853
0.0395663 14350.98 230.60338
0.0398448 13895.05 231.19693
0.0401234 14505.65 231.56529
0.040402 14027.34 234.85131
0.0406806 14060.97 231.35136
0.0409591 13747.57 226.55212
0.0412377 13741.13 229.80592
0.0415163 13900.82 226.86205
0.0417948 13918.76 228.44369
0.0420734 14239.65 228.20863
0.042352 13710.92 228.1829
0.0426305 13388.85 230.53511
0.0429091 13639.21 227.91504
0.0431877 13412.86 231.05912
0.0434663 13375.08 230.98289
0.0437448 13551.22 235.64584
0.0440234 13473.92 236.71133
0.044302 13316.73 231.70232
0.0445805 13305.42 234.94207
0.0448591 12753.11 234.37557
0.0451377 12824.11 238.87208
0.0454163 12525.52 235.45242
0.0456948 12701.44 235.76202
0.0459734 12588.75 236.29648
0.046252 12894.99 238.57967
0.0465305 12676.53 232.42038
0.0468091 12503.11 231.23068
0.0470877 12684.98 228.01171
0.0473662 12539.31 226.67684
0.0476448 12695.84 226.90831
0.0479234 12046.91 223.07758
0.048202 12170.99 222.29814
0.0484805 12345.86 222.0446
0.0487591 11767.9 217.81701
0.0490377 12180.05 220.13387
0.0493162 12250.93 215.1322
0.0495948 11735.79 217.61331
0.0498734 11741.03 213.41732
0.0501519 11841.56 215.24514
0.0504305 12107.93 215.53187
0.0507091 11719.94 214.14448
0.0509877 11718.34 215.13949
0.0512662 11407.53 213.04436
0.0515448 11653.06 211.90805
0.0518234 11230.71 211.62685
0.0521019 10792.79 210.46978
0.0523805 10969.05 211.48641
0.0526591 10876.86 211.4068
0.0529376 10887.7 209.36646
0.0532162 11368.63 211.67384
0.0534948 11106.03 209.55633
0.0537734 10898.3 209.58256
0.0540519 10436.4 207.16365
0.0543305 10679.5 208.53862
0.0546091 10619 206.5228
0.0548876 10487.91 203.06751
0.0551662 10444.16 203.81108
0.0554448 10055.45 202.78935
0.0557234 10764.36 201.66066
0.0560019 10130.93 202.4199
0.0562805 10132.78 199.56602
0.0565591 10044.31 199.55077
0.0568376 10217.67 199.57708
0.0571162 10276.13 197.26133
0.0573948 10043.56 198.78578
0.0576733 9658.06 195.59033
0.0579519 9413.58 197.87095
0.0582305 10117.06 196.53173
0.0585091 9612.62 195.40963
0.0587876 9783.45 196.28506
0.0590662 9700.32 195.51727
0.0593448 9450.55 195.46331
0.0596233 9666.29 193.48417
0.0599019 9276.16 192.48394
0.0601805 9265.9 194.1903
0.060459 9469.37 193.29594
0.0607376 9071.42 190.31193
0.0610162 9079.68 190.6395
0.0612948 8710.02 191.08405
0.0615733 8809.81 191.25923
0.0618519 8701.81 188.16933
0.0621305 9041.47 189.10273
0.062409 8546.04 188.20057
0.0626876 8724.91 190.3259
0.0629662 8797.84 187.01007
0.0632448 8257.31 187.58292
0.0635233 8352 187.28754
0.0638019 8205.57 185.6454
0.0640805 8889.95 187.60911
0.064359 8223.5 183.89028
0.0646376 8232.95 185.97191
0.0649162 8212.73 184.80484
0.0651947 7870.34 183.62435
0.0654733 8156.81 183.56294
0.0657519 8018.65 182.70497
0.0660305 7691.02 182.94605
0.066309 7914.66 181.47874
0.0665876 7618.19 182.35003
0.0668662 7768.51 180.69544
0.0671447 7568.77 179.97264
0.0674233 7841.16 182.05353
0.0677019 7447.77 178.6493
0.0679804 7479.43 179.75688
0.068259 7313.37 179.33323
0.0685376 7368.47 178.27565
0.0688162 7342.96 177.93758
0.0690947 7450.31 176.84498
0.0693733 7183.72 178.28663
0.0696519 7007.57 177.41006
0.0699304 7016.86 176.61717
0.070209 7044.86 176.32628
0.0704876 7079.57 174.00614
0.0707662 6516.59 176.13398
0.0710447 6830.45 174.82239
0.0713233 6593.73 173.94596
0.0716019 6651.56 174.31816
0.0718804 6522.03 172.14224
0.072159 6578.9 173.49269
0.0724376 6464.01 172.00223
0.0727161 6652.99 171.64397
0.0729947 6380.31 171.37369
0.0732733 6319.12 171.27836
0.0735519 6208.1 170.6029
0.0738304 6317.78 170.70434
0.074109 6539.24 169.85751
0.0743876 5949.55 170.10284
0.0746661 6100.4 169.8434
0.0749447 5966.37 168.10549
0.0752233 6007.04 169.49914
0.0755018 5775.03 168.35285
0.0757804 5977.36 168.82103
0.076059 5911.68 167.77011
0.0763376 5944.22 167.42492
0.0766161 5592.42 165.15375
0.0768947 5837.57 166.67584
0.0771733 5647.4 165.71617
0.0774518 5521.53 165.15345
0.0777304 5603.4 164.16643
0.078009 5603.48 170.00477
0.0782875 5756.15 169.42151
0.0785661 5487.95 169.14041
0.0788447 5146.43 170.10375
0.0791233 5582.33 172.62742
0.0794018 5279.17 174.83172
0.0796804 5605.64 171.98575
0.079959 4988.86 173.81628
0.0802375 5008.08 173.39067
0.0805161 5424.3 175.37905
0.0807947 4955.79 176.41996
0.0810733 5059.94 174.65652
0.0813518 4904.55 175.6971
0.0816304 4805.63 175.25436
0.081909 4718.52 175.73197
0.0821875 5161.36 176.9811
0.0824661 4987.45 177.07179
0.0827447 5027.74 176.52511
0.0830232 4583.61 176.99215
0.0833018 4598.3 176.00761
0.0835804 4156.36 178.79102
0.083859 4361.01 178.75527
0.0841375 4543.47 178.5898
0.0844161 4517.62 178.10431
0.0846947 4051.88 173.34901
0.0849732 4536.51 173.04879
0.0852518 4258.3 171.7386
0.0855304 4054.89 169.87207
0.0858089 4302.77 167.60129
0.0860875 4277.19 167.66106
0.0863661 4309.86 167.16403
0.0866447 4043.35 165.55524
0.0869232 3711.76 165.51723
0.0872018 3809.43 164.73456
0.0874804 4112.79 164.85706
0.0877589 4004.93 162.5334
0.0880375 4232.28 162.80128
0.0883161 4011.93 161.91041
0.0885947 3932.96 162.03731
0.0888732 3505.86 161.09372
0.0891518 3405.74 160.11326
0.0894304 3808.32 159.60043
0.0897089 3734.63 159.16422
0.0899875 3734.35 157.61229
0.0902661 3719.24 157.4647
0.0905446 3555.56 157.21611
0.0908232 3447.01 156.09633
0.0911018 3342.48 156.32207
0.0913804 3454.58 155.66894
0.0916589 3597.19 154.55083
0.0919375 3338.94 157.95367
0.0922161 3419.8 161.3191
0.0924946 3019.39 158.77577
0.0927732 3422.71 161.44693
0.0930518 3355.68 160.87618
0.0933303 3298.06 163.30881
0.0936089 3167.36 163.9107
0.0938875 3305.85 163.28872
0.0941661 3102.19 164.06317
0.0944446 3254.5 164.00249
0.0947232 3119.59 162.0908
0.0950018 2954.86 162.33436
0.0952803 2746.48 164.08691
0.0955589 2982.06 166.02845
0.0958375 3107.83 162.77347
0.0961161 2657.42 159.41695
0.0963946 2850.17 158.15455
0.0966732 3064.1 157.67564
0.0969518 2748.47 156.98119
0.0972303 2496.13 156.03089
0.0975089 2739.19 155.65564
0.0977875 2807.68 154.71043
0.098066 2716.1 154.78805
0.0983446 2613.9 153.9552
0.0986232 2386.42 152.89794
0.0989018 2493.87 153.21837
0.0991803 2849.3 152.8746
0.0994589 2938.78 152.19382
0.0997375 2479.76 151.3599
0.100016 2454.32 150.97231
0.100295 2914.35 150.46268
0.100573 2614.98 149.87045
0.100852 2483.96 149.19669
0.10113 2191.09 148.52118
0.101409 2518.19 148.73447
0.101687 2275.24 147.62305
0.101966 2224.25 146.56112
0.102245 2253.69 146.44145
0.102523 2440.52 146.39135
0.102802 2245.92 146.49195
0.10308 1825.78 145.96852
0.103359 2037.27 145.94845
0.103637 2116.16 146.0248
0.103916 1800.43 145.1658
0.104195 2073.69 145.80639
0.104473 2142.29 143.62065
0.104752 2021.8 144.74068
0.10503 2010.92 144.60853
0.105309 1768.34 143.39481
0.105587 2003.59 144.69812
0.105866 1923.2 142.72032
0.106145 2274.59 143.82422
0.106423 1752.81 143.22705
0.106702 1845.9 141.8689
0.10698 1867.34 143.94862
0.107259 1687.97 141.735
0.107537 1878.01 142.9689
0.107816 1742.5 142.12695
0.108095 1848.46 141.00742
0.108373 1956.71 141.21495
0.108652 1798.31 140.84549
0.10893 1767.56 140.8528
0.109209 1774.56 140.64055
0.109487 1763.87 139.77709
0.109766 1536.7 141.12203
0.110045 1587.2 140.45262
0.110323 1863.93 139.94376
0.110602 1551.33 139.91869
0.11088 1422.98 138.80117
0.111159 1314.73 139.74442
0.111437 1452.13 138.53436
0.111716 1451.21 138.83209
0.111995 1496.53 138.51144
0.112273 1569.31 137.74568
0.112552 1247.99 138.83021
0.11283 1336.78 136.81769
0.113109 1375.63 138.25344
0.113387 1555.97 137.11451
0.113666 1492.95 137.65095
0.113945 1373.33 137.56104
0.114223 1389.52 136.54443
0.114502 1415.07 137.4919
0.11478 1261.04 137.18889
0.115059 1652.9 136.33207
0.115337 1377.99 135.70274
0.115616 1286.3 136.19309
0.115895 1141.97 135.80223
0.116173 1047.35 136.18588
0.116452 1286.26 134.87106
0.11673 1072.96 135.0503
0.117009 1371.59 135.41494
0.117287 1441 134.87151
0.117566 1284.71 134.64924
0.117845 1123.84 134.41474
0.118123 1147.8 134.18081
0.118402 1160.08 133.74572
0.11868 1168.89 132.88319
0.118959 1121.32 133.44545
0.119237 1152.58 132.78909
0.119516 997.34 133.41043
0.119795 964.1 133.16589
0.120073 1067.49 132.35882
0.120352 1153.72 132.88012
0.12063 1010.25 132.59351
0.120909 1163.02 131.66782
0.121187 959.67 131.77027
0.121466 997.62 130.70617
0.121745 897.68 131.48059
0.122023 700.81 130.35387
0.122302 903.4 129.76256
0.12258 687.92 129.63924
0.122859 850.67 129.48434
0.123137 956.86 130.06394
0.123416 796.3 129.00984
0.123695 874.25 128.77144
0.123973 809.47 129.4945
0.124252 730.55 127.65193
0.12453 667.16 129.36163
0.124809 898.17 127.84471
0.125087 809.24 128.99613
0.125366 906.71 128.24689
0.125645 846.08 127.173
0.125923 745.99 128.53416
0.126202 819.58 127.96428
0.12648 738.47 128.39138
0.126759 679.19 128.38354
0.127037 608.05 128.01653
0.127316 612.45 127.2365
0.127594 649.31 127.74274
0.127873 1002.58 127.62872
0.128152 609.32 128.05733
0.12843 731.06 127.10922
0.128709 627.98 127.51057
0.128987 581.74 126.54473
0.129266 841.5 126.60487
0.129544 808.45 126.53832
0.129823 742.48 126.78834
0.130102 653.18 126.93759
0.13038 587.43 126.25101
0.130659 825.55 125.85394
0.130937 544.68 126.35208
0.131216 308.78 125.08266
0.131494 434.46 125.22972
0.131773 540.56 126.0879
0.132052 673.63 124.7848
0.13233 588.36 125.80519
0.132609 732.12 124.68436
0.132887 511.02 125.134
0.133166 445.65 124.95466
0.133444 523.87 124.13195
0.133723 538.17 124.72898
0.134002 369.66 122.97166
0.13428 470.32 124.18936
0.134559 710 124.1957
0.134837 631.04 123.68046
0.135116 481.37 123.79638
0.135394 277.84 122.72071
0.135673 690.21 123.03535
0.135952 717.43 124.05177
0.13623 356.14 122.44459
0.136509 661.9 123.08057
0.136787 460.24 122.56762
0.137066 632.91 124.56523
0.137344 442.88 126.01782
0.137623 191.92 125.33415
0.137902 540.26 127.94804
0.13818 515.82 128.34715
0.138459 322.47 128.1264
0.138737 537.93 129.55264
0.139016 335.64 128.65684
0.139294 471.98 131.13326
0.139573 366.98 130.13567
0.139852 467.98 129.74404
0.14013 398.68 131.38195
0.140409 245.12 130.25318
0.140687 338.66 132.00057
0.140966 325.66 131.79704
0.141244 224.69 131.59049
0.141523 582.85 133.33317
0.141802 455.49 132.0931
0.14208 326.6 133.28055
0.142359 511.63 132.55489
0.142637 154.67 133.8981
0.142916 489.17 133.4958
0.143194 432.89 133.04405
0.143473 145.15 134.36033
0.143752 181.92 130.74158
0.14403 130.94 130.20933
0.144309 506.65 128.48325
0.144587 367.15 128.066
0.144866 118.25 126.81015
0.145144 218.8 126.78614
0.145423 244.63 125.59806
0.145702 444.61 125.03639
0.14598 338.93 125.58601
0.146259 120.28 125.09099
0.146537 278.91 124.81558
0.146816 282.79 124.23821
0.147094 279.86 123.34768
0.147373 221.9 123.75651
0.147652 183.33 123.07957
0.14793 213.98 122.51048
0.148209 355.18 122.97445
0.148487 297.43 122.45639
0.148766 365.42 122.88075
0.149044 159 122.55163
0.149323 309.05 121.71151
0.149602 384.11 121.38515
0.14988 367.68 121.24635
0.150159 324.21 121.43578
0.150437 197.12 121.77929
0.150716 236.92 122.22672
0.150994 310.53 121.17356
0.151273 281.33 120.47844
0.151552 193.95 120.79129
0.15183 227.66 120.36126
0.152109 80.52 121.0023
0.152387 284.22 119.82144
0.152666 214.89 120.61222
0.152944 271 120.10657
0.153223 276.07 119.441
0.153502 130.79 119.57686
0.15378 79.97 119.50804
0.154059 211.12 119.64223
0.154337 85.48 119.34758
0.154616 319 117.99583
0.154894 73.96 119.13806
0.155173 191.09 118.39234
0.155452 -74.36 118.84775
0.15573 279.18 118.25758
0.156009 247.9 118.25577
0.156287 209.55 118.17982
0.156566 235.74 117.2866
0.156844 405.89 117.63546
0.157123 69.31 117.56108
0.157402 243.82 117.4711
0.15768 244.9 117.07575
0.157959 210.96 116.95166
0.158237 284.79 117.31846
0.158516 235.9 117.87706
0.158794 259.25 116.2979
0.159073 -17.45 116.561
0.159352 173.13 116.75667
0.15963 453.34 116.12107
0.159909 -63.45 116.48052
0.160187 410.47 116.32095
0.160466 69.91 116.1807
0.160744 158.33 116.19418
0.161023 155.69 116.126
0.161302 133.65 115.49907
0.16158 63.85 115.05668
0.161859 247.3 115.44962
0.162137 87.11 115.67356
0.162416 297.94 114.51445
0.162694 41.45 114.64008
0.162973 79.08 114.78013
0.163252 174.56 113.94438
0.16353 76.15 114.84514
0.163809 168.88 113.4499
0.164087 152.1 114.67894
0.164366 253 113.9191
0.164644 135.35 113.16866
0.164923 234.98 114.3274
0.165201 70.98 113.45735
0.16548 152.4 113.57917
0.165759 79.17 112.81452
0.166037 345.53 112.68239
0.166316 231.24 112.95323
0.166594 195.31 112.50705
0.166873 73.24 112.75119
0.167151 354.8 111.95825
0.16743 243.17 112.05809
0.167709 378.09 112.19092
0.167987 107.85 112.32541
0.168266 -85.37 112.36559
0.168544 173.38 112.25185
0.168823 28.56 111.65366
0.169101 190.21 111.69866
0.16938 154.37 111.36419
0.169659 -69.23 111.63007
0.169937 51.64 111.97924
0.170216 233.67 111.47684
0.170494 201.01 111.1041
0.170773 -39.93 111.04489
0.171051 13.69 111.68867
0.17133 161.68 111.09931
0.171609 32.99 111.21746
0.171887 -12.86 111.33932
0.172166 77.57 111.11736
0.172444 129.17 111.02866
0.172723 -27.69 111.33434
0.173001 149.73 110.99639
0.17328 234.68 111.06793
0.173559 -117.56 111.25181
0.173837 226.07 110.84129
0.174116 168.28 111.03014
0.174394 -154.12 110.72766
0.174673 37.72 111.43031
0.174951 104.75 110.26805
0.17523 80.55 110.42299
0.175509 361.76 110.89228
0.175787 10.52 110.42541
0.176066 72.96 109.71226
0.176344 19.42 109.86274
0.176623 131.56 109.50718
0.176901 193.43 109.81541
0.17718 350.09 109.51449
0.177459 176.08 109.44059
0.177737 6.98 109.58738
0.178016 145.2 109.06554
0.178294 139.38 110.59871
0.178573 86.54 109.10903
0.178851 98.44 109.87338
0.17913 100.05 108.60511
0.179409 181.38 109.2423
0.179687 27.8 109.67472
0.179966 283.37 108.92341
0.180244 79.7 109.18644
0.180523 454.55 108.78763
0.180801 -133.4 108.95086
0.18108 116.75 109.35598
0.181359 70.33 108.87039
0.181637 102.49 109.17883
0.181916 79.42 108.59193
0.182194 36.38 109.14246
0.182473 53.27 109.65559
0.182751 217.95 108.83288
0.18303 162.18 109.71651
0.183309 356.36 109.3607
0.183587 27.35 109.73143
0.183866 -107.46 109.44005
0.184144 152.2 109.04003
0.184423 68.72 109.1858
0.184701 43.09 109.57911
0.18498 58.43 109.86686
0.185259 92.8 109.97685
0.185537 37.45 108.95214
0.185816 50.77 109.38861
0.186094 11.31 109.56391
0.186373 161.55 108.71179
0.186651 -59.82 109.60252
0.18693 120.01 109.17297
0.187209 38.6 109.19068
0.187487 49.27 108.78118
0.187766 239.09 108.36868
0.188044 175.3 108.17222
0.188323 -24.06 108.54108
0.188601 175.57 107.73448
0.18888 -46.2 108.21988
0.189159 190.77 107.48404
0.189437 -13.28 108.25827
0.189716 41.26 107.91981
0.189994 15.14 107.46859
0.190273 238.05 107.6519
0.190551 247.49 107.1896
0.19083 124.08 107.2646
0.191109 144.73 107.19093
0.191387 86.27 106.58067
0.191666 -12.48 107.49383
0.191944 202.57 107.24427
0.192223 -54.32 105.9612
0.192501 56.94 106.61291
0.19278 227.98 106.17008
0.193059 107.38 106.55691
0.193337 77.7 106.3911
0.193616 128.1 106.57241
0.193894 37.74 106.63437
0.194173 32.65 105.60805
0.194451 174.74 105.37537
0.19473 21.42 105.9578
0.195009 203.28 105.59434
0.195287 104.74 106.40906
0.195566 5.31 105.10709
0.195844 -121.66 105.96534
0.196123 171.82 106.81666
0.196401 142.19 107.61144
0.19668 -33.96 108.78282
0.196959 171.04 108.63341
0.197237 -81.82 109.82361
0.197516 138.32 109.49414
0.197794 75.15 109.62381
0.198073 39.32 110.77423
0.198351 -40.97 110.75621
0.19863 135.55 111.74332
0.198909 121.21 111.19988
0.199187 51.07 111.28856
0.199466 132.74 112.10918
0.199744 177.99 111.8288
0.200023 94.44 112.61898
0.200301 37.38 112.76694
0.20058 254.75 112.86738
0.200858 83.78 113.49196
0.201137 162.36 113.2254
0.201416 94.32 113.97379
0.201694 133.38 113.87949
0.201973 329.97 114.08284
0.202251 65.35 114.29878
0.20253 296.96 115.3311
0.202808 189.14 113.08157
0.203087 89.1 112.23729
0.203366 -94.49 110.89313
0.203644 110.82 110.87217
0.203923 267.92 109.92464
0.204201 299.99 109.87384
0.20448 47.01 109.86826
0.204758 1.79 108.70278
0.205037 204.46 108.60148
0.205316 -48.91 109.34652
0.205594 -48 108.33729
0.205873 10.28 108.45805
0.206151 248.04 107.76184
0.20643 74.24 108.04451
0.206708 51.19 107.58981
0.206987 82.81 107.33915
0.207266 -21.36 107.98919
0.207544 54.71 107.49004
0.207823 47.47 107.77759
0.208101 108.58 106.91882
0.20838 -20.29 107.33473
0.208658 -4.85 107.51245
0.208937 40.37 106.26806
0.209216 169.21 107.59927
0.209494 220.78 106.62802
0.209773 8.82 106.05466
0.210051 -35.02 106.90499
0.21033 261.3 106.20154
0.210608 70.27 106.48466
0.210887 155.69 105.69068
0.211166 113.11 106.05851
0.211444 -146.5 106.32822
0.211723 112.61 105.48869
0.212001 165.01 106.30757
0.21228 134.14 105.14934
0.212558 18.41 106.50174
0.212837 -60.37 104.91234
0.213116 281.03 104.62128
0.213394 -89.35 105.33537
0.213673 202.35 105.49795
0.213951 274.29 105.30389
0.21423 -74.22 104.86984
0.214508 55.27 104.43584
0.214787 -2.78 104.73392
0.215066 -19.83 104.64872
0.215344 221.32 104.54533
0.215623 17.77 104.78454
0.215901 258.48 104.1698
0.21618 101.07 104.45117
0.216458 106.82 104.25826
0.216737 36.15 104.29345
0.217016 -6.84 103.38996
0.217294 132.8 104.49312
0.217573 115.4 103.85572
0.217851 -0.7 103.33942
0.21813 149.54 103.51647
0.218408 193.74 103.13036
0.218687 129.88 103.2733
0.218966 58.77 103.23949
0.219244 -31.57 103.34793
0.219523 65.68 102.71706
0.219801 44.43 103.01542
0.22008 30.18 102.76126
0.220358 106.27 102.42152
0.220637 91.6 102.68628
0.220916 -11.71 102.57518
0.221194 93.96 102.20251
0.221473 184.98 102.27665
0.221751 125.33 102.27003
0.22203 385.66 102.74117
0.222308 156.86 101.79153
0.222587 77.05 101.80368
0.222866 -10.23 102.45943
0.223144 203.6 101.96675
0.223423 164.74 102.82258
0.223701 132.42 101.3101
0.22398 -80.97 102.29165
0.224258 13.58 102.07306
0.224537 114.61 102.01031
0.224816 131.4 101.68426
0.225094 85.33 101.59983
0.225373 -17.82 102.11686
0.225651 -145.52 102.14969
0.22593 125.43 101.28517
0.226208 196.69 101.52827
0.226487 205.07 101.4661
0.226766 42.3 101.66935
0.227044 30.81 100.97305
0.227323 4.22 101.25341
0.227601 168.92 100.55306
0.22788 -34.56 100.88987
0.228158 128.33 100.59678
0.228437 223.72 100.47663
0.228716 38.46 100.69653
0.228994 -186.13 100.3476
0.229273 100.33 99.82895
0.229551 214.52 99.772449
0.22983 67.55 100.42999
0.230108 331.36 100.13058
0.230387 -3.01 100.24407
0.230666 98.11 100.5729
0.230944 -167.3 100.16516
0.231223 8.33 100.67842
0.231501 220.79 100.73123
0.23178 -187.47 100.75134
0.232058 178.69 101.19091
0.232337 224.22 100.98047
0.232616 186.6 101.5065
0.232894 54.84 100.92674
0.233173 173.68 101.26632
0.233451 119.57 102.07203
0.23373 109.7 101.605
0.234008 -17.85 101.74658
0.234287 147.97 102.05416
0.234566 -57.1 101.88049
0.234844 27.67 102.33958
0.235123 50.1 101.68613
0.235401 134.6 101.83841
0.23568 65.6 100.80383
0.235958 124.61 101.45588
0.236237 30.77 101.3255
0.236515 85.2 101.01021
0.236794 125.27 101.42828
0.237073 42.19 100.62653
0.237351 236.38 101.29489
0.23763 -63.28 100.37397
0.237908 173.73 100.50323
0.238187 -38.56 100.05497
0.238465 228.98 100.27276
0.238744 196.35 100.34746
0.239023 29.89 100.13816
0.239301 -22.91 100.06074
0.23958 66.27 100.66298
0.239858 -41.27 99.630259
0.240137 30 100.02597
0.240415 53.31 99.742507
0.240694 118.42 99.191105
0.240973 87.43 99.679453
0.241251 5.49 99.144242
0.24153 -4.64 99.426826
0.241808 -133.08 99.092977
0.242087 221.65 99.368342
0.242365 241.58 99.110615
0.242644 62.01 98.591629
0.242923 8.61 98.623897
0.243201 110.08 99.203276
0.24348 -66.3 98.750637
0.243758 51.93 98.185981
0.244037 5.42 98.242114
0.244315 -56.05 98.202519
0.244594 -12.34 97.738006
0.244873 128.22 98.038408
0.245151 36.88 97.458023
0.24543 -23.41 98.077228
0.245708 -53.34 97.183613
0.245987 206.65 97.131543
0.246265 149.51 97.751929
0.246544 112.55 97.152142
0.246823 1.85 97.576797
0.247101 180.45 97.008979
0.24738 168.52 97.142207
0.247658 -93.74 97.453032
0.247937 -60.93 97.183447
0.248215 6.4 97.853494
0.248494 -31.92 97.105941
0.248773 126.86 97.375885
0.249051 42.51 97.255261
0.24933 64.68 97.332601
0.249608 101.06 97.023634
0.249887 82.47 96.997548
0.250165 150.32 97.386627
0.250444 -75.42 96.829108
0.250723 338.73 97.069789
0.251001 96.93 97.106264
0.25128 9.26 96.723598
0.251558 77.75 97.283136
0.251837 55.86 96.565195
0.252115 53.54 96.643636
0.252394 -51.07 96.636254
0.252673 -16.01 96.710436
0.252951 107.46 96.51506
0.25323 -6.3 96.804833
0.253508 -141.82 96.497018
0.253787 55.01 96.769021
0.254065 53.67 95.973009
0.254344 126.7 96.424355
0.254623 38.65 95.891903
0.254901 109.67 96.875104
0.25518 42.24 97.66475
0.255458 12.58 97.89234
0.255737 2.34 99.021896
0.256015 0.46 99.46218
0.256294 21.74 100.05186
0.256573 -77.26 100.29763
0.256851 154.9 100.64605
0.25713 13.09 101.31051
0.257408 -33.53 101.55165
0.257687 129.35 101.92318
0.257965 28.11 101.47813
0.258244 152.19 102.4966
0.258523 92.82 102.97708
0.258801 -49.66 102.3634
0.25908 285.25 103.22634
0.259358 -144.84 102.69432
0.259637 105.93 103.9378
0.259915 62.94 103.22704
0.260194 38.54 104.06325
0.260473 -3.1 103.93246
0.260751 -34.14 103.93438
0.26103 -121.07 104.3364
0.261308 176.78 104.46315
0.261587 242.73 104.25233
0.261865 157.26 103.50652
0.262144 87.28 102.0673
0.262423 -37.57 101.95438
0.262701 96.6 100.99889
0.26298 96.83 100.87174
0.263258 192.7 100.13789
0.263537 196.73 100.07611
0.263815 -25.45 99.830946
0.264094 210.06 98.997198
0.264373 135.31 100.13475
0.264651 104.97 99.068694
0.26493 -57.13 99.114957
0.265208 -118.07 99.323493
0.265487 114.98 98.952885
0.265765 -36.55 99.514829
0.266044 39.72 98.279735
0.266323 207.03 98.911606
0.266601 52.01 98.280127
0.26688 112.2 98.285217
0.267158 130.69 98.258662
0.267437 72.51 97.748767
0.267715 69.35 98.092757
0.267994 149.61 98.1146
0.268273 23.2 96.950618
0.268551 -51.5 97.819196
0.26883 -16.69 96.69377
0.269108 5.81 97.176146
0.269387 153.94 96.842077
0.269665 -43.81 96.054478
0.269944 10.22 96.83642
0.270223 -50.07 95.877238
0.270501 272.12 96.19861
0.27078 -61.67 96.531019
0.271058 209.08 95.776249
0.271337 26.41 95.718934
0.271615 124.48 95.631145
0.271894 -63.5 95.589833
0.272172 3.94 96.151268
0.272451 96.92 95.307358
0.27273 61.42 95.414908
0.273008 -114.02 95.838334
0.273287 -12.91 95.271216
0.273565 -3.62 96.024697
0.273844 69.31 95.425477
0.274122 9.04 95.754763
0.274401 179.28 95.488616
0.27468 60.42 95.111521
0.274958 -84.61 95.78169
0.275237 50.47 95.251644
0.275515 -55.66 95.148218
0.275794 232.27 94.940015
0.276072 -107.46 94.920319
0.276351 110.38 95.136384
0.27663 150.5 94.277409
0.276908 5.73 94.385323
0.277187 -126.33 94.781919
0.277465 -35.05 94.517337
0.277744 120.89 94.997134
0.278022 -25.61 94.133195
0.278301 72.31 94.768574
0.27858 13.25 95.169305
0.278858 5.35 94.069382
0.279137 9 94.654706
0.279415 -240.38 94.219478
0.279694 108.6 94.154341
0.279972 -35 94.396456
0.280251 180.98 93.977933
0.28053 -22.32 94.063986
0.280808 82.44 94.890856
0.281087 9.94 93.949803
0.281365 -60.97 94.242434
0.281644 82.75 94.111247
0.281922 27.05 94.14157
0.282201 -139.52 94.014853
0.28248 51.8 93.87852
0.282758 67.08 93.849931
0.283037 191.61 93.626914
0.283315 180.25 93.93789
0.283594 70.07 93.684091
0.283872 96.94 93.543877
0.284151 122.7 94.183299
0.28443 27.55 93.775374
0.284708 77.11 93.570158
0.284987 -134.32 93.502581
0.285265 -30.95 93.475288
0.285544 128.64 93.041095
0.285822 -8.23 93.744526
0.286101 -89.78 93.259675
0.28638 -12.01 93.408513
0.286658 -18.4 93.14073
0.286937 133.06 93.314712
0.287215 -12.77 93.170467
0.287494 -78.48 92.927827
0.287772 30.66 93.137877
0.288051 -5.9 92.702286
0.28833 -75.27 93.018354
0.288608 107.34 92.723054
0.288887 -15.2 92.608977
0.289165 67.42 92.789652
0.289444 119.15 92.560062
0.289722 -16.27 92.632787
0.290001 -20.87 92.59784
0.29028 -114.06 92.197526
0.290558 52.27 92.899814
0.290837 123.3 92.035012
0.291115 28.75 92.132783
0.291394 -0.58 92.249794
0.291672 -34.72 92.755654
0.291951 -46.59 92.461459
0.29223 78.6 91.917153
0.292508 30.83 91.994213
0.292787 -83.24 92.242897
0.293065 -63.93 92.028838
0.293344 246.2 92.74181
0.293622 -98.1 91.512972
0.293901 73.95 92.024822
0.29418 -71.4 92.307213
0.294458 -38.64 91.396927
0.294737 38.73 92.084562
0.295015 42.14 91.642952
0.295294 -124.3 92.126521
0.295572 103.01 91.804814
0.295851 148.94 91.600269
0.29613 168.53 91.885317
0.296408 -13.01 91.507643
0.296687 -98.59 91.386523
0.296965 85.11 91.69365
0.297244 51.47 91.352914
0.297522 91.41 91.751603
0.297801 -2.92 91.072345
0.29808 -218.45 91.314506
0.298358 113.14 91.591395
0.298637 91.42 91.985019
0.298915 -61.39 91.364502
0.299194 24.21 90.795655
0.299472 -9.13 91.127817
0.299751 66.6 91.411951
0.30003 -27.27 90.767611
0.300308 8.65 90.940418
0.300587 59.4 90.801031
0.300865 -129.56 90.983492
0.301144 115.17 91.272362
0.301422 128.45 90.831374
0.301701 -148.49 90.814461
0.30198 76.7 91.413445
0.302258 -39.34 90.55369
0.302537 -12.62 90.522061
0.302815 -12.96 90.76161
0.303094 81.32 90.653809
0.303372 28.51 91.084121
0.303651 -126.25 90.477558
0.30393 106.38 90.62247
0.304208 -56.28 90.085205
0.304487 23.45 89.954108
0.304765 63.45 90.617506
0.305044 16.75 89.587129
0.305322 -48.1 90.153372
0.305601 110.25 90.124433
0.30588 -11.03 89.935166
0.306158 64.85 90.394927
0.306437 -72.02 90.07657
0.306715 33.53 90.332304
0.306994 75.84 89.683932
0.307272 -30.69 89.985557
0.307551 -104.35 89.416892
0.30783 101.66 89.793675
0.308108 -7.92 90.084744
0.308387 -147.85 90.139892
0.308665 -95.48 90.01507
0.308944 -59.55 90.492669
0.309222 109.81 89.70444
0.309501 -3.54 89.95862
0.309779 31.6 89.553794
0.310058 32.66 90.320418
0.310337 -26.58 89.940742
0.310615 145.32 89.496647
0.310894 32.99 89.936446
0.311172 121.16 89.554675
0.311451 176.28 90.260814
0.311729 -45.08 89.984565
0.312008 161.22 89.355591
0.312287 -119.41 89.570488
0.312565 49.74 89.194728
0.312844 -248.46 89.434162
0.313122 116.25 89.465635
0.313401 -87.5 89.594286
0.313679 72.54 89.150978
0.313958 52.14 89.260743
0.314237 60.26 90.315653
0.314515 25.6 91.129069
0.314794 177.73 91.733724
0.315072 43.78 92.577164
0.315351 39.14 92.814963
0.315629 -9.78 93.166707
0.315908 42.9 93.277575
0.316187 64.7 93.657535
0.316465 -115.66 93.800917
0.316744 114.09 94.60861
0.317022 -17.14 94.676594
0.317301 1.14 94.274255
0.317579 40.91 94.735445
0.317858 47.67 95.281545
0.318137 82.86 95.717588
0.318415 136.24 95.12116
0.318694 29.51 96.083012
0.318972 -93.22 95.814505
0.319251 231.25 96.631365
0.319529 15.66 97.487417
0.319808 168.26 96.827139
0.320087 -75.83 97.684056
0.320365 -20.7 96.866908
0.320644 0.35 97.236693
0.320922 -222.23 96.731512
0.321201 78.84 95.01707
0.321479 -156.03 95.215404
0.321758 -155.23 93.820234
0.322037 24.5 93.871433
0.322315 96.2 94.107984
0.322594 -185.55 93.323274
0.322872 -99.06 93.827302
0.323151 205.3 93.050745
0.323429 58.96 92.621978
0.323708 96.55 92.89015
0.323987 -43.59 92.235694
0.324265 25.58 92.565547
0.324544 9.1 92.711212
0.324822 62.03 92.352524
0.325101 18.63 91.847679
0.325379 28.58 91.946795
0.325658 -19.89 92.091785
0.325937 -104.01 92.174686
0.326215 -0.89 91.631987
0.326494 -25.43 91.299325
0.326772 30.56 91.776787
0.327051 16.77 91.35785
0.327329 89.48 91.342504
0.327608 -12.06 91.182349
0.327887 0.47 91.196135
0.328165 4.68 90.907011
0.328444 -202.43 90.175541
0.328722 -3.35 90.774754
0.329001 69.21 90.01387
0.329279 -2.92 90.71187
0.329558 166.71 90.488825
0.329837 13.82 90.012269
0.330115 31.64 89.988182
0.330394 -47.81 89.940739
0.330672 127.35 90.172158
0.330951 39.2 90.136466
0.331229 -86.08 89.587587
0.331508 67.2 90.272737
0.331787 43.31 89.602787
0.332065 -97.38 89.639504
0.332344 15.53 89.345499
0.332622 -79.57 89.200705
0.332901 -34.2 90.416141
0.333179 -51.57 89.337536
0.333458 62.03 89.449021
0.333737 119.47 89.638266
0.334015 46.55 89.396371
0.334294 53.39 90.090461
0.334572 88.11 88.870257
0.334851 -82.4 89.482285
0.335129 -100.89 89.705529
0.335408 141.77 89.299405
0.335687 -0.67 89.901493
0.335965 1.18 88.821847
0.336244 156.39 89.431218
0.336522 -47.62 89.60245
0.336801 -69.94 89.058111
0.337079 -91.94 89.132565
0.337358 9.11 88.594777
0.337637 -32.16 89.285936
0.337915 135.56 89.651183
0.338194 35.28 88.76473
0.338472 10.24 89.001441
0.338751 -15.5 88.556135
0.339029 -85.22 88.83038
0.339308 -148.69 88.534277
0.339587 29.34 88.502766
0.339865 37.19 89.07494
0.340144 -41.9 88.450253
0.340422 -6.33 88.386217
0.340701 29.25 88.364859
0.340979 51.8 88.493099
0.341258 6.82 88.17958
0.341537 50.79 88.248286
0.341815 19.8 88.203335
0.342094 133.01 88.228382
0.342372 -11.35 88.401175
0.342651 17.41 87.823464
0.342929 -18.68 87.872492
0.343208 26.18 87.913653
0.343487 80.53 88.036376
0.343765 52.23 87.700939
0.344044 35.42 87.554192
0.344322 -7.39 87.87453
0.344601 -183.07 87.752524
0.344879 53.92 87.710392
0.345158 79.75 87.041798
0.345436 54.35 87.281078
0.345715 84.92 87.586351
0.345994 -151.17 86.978716
0.346272 -10.54 87.229863
0.346551 -51.99 87.039702
0.346829 -8.86 87.002111
0.347108 -18.56 87.566842
0.347386 -118.54 86.631197
0.347665 -99.63 87.170065
0.347944 35.33 86.981145
0.348222 7.68 86.964912
0.348501 142.76 87.432992
0.348779 21.45 86.702586
0.349058 -33.04 87.152567
0.349336 41.34 87.265836
0.349615 82.11 86.542506
0.349894 87.23 86.976717
0.350172 160.51 86.935944
0.350451 144.69 87.620884
0.350729 34.51 87.033489
0.351008 -26.82 87.076693
0.351286 101.99 87.101095
0.351565 147.07 86.20998
0.351844 -109.23 87.117234
0.352122 95.04 87.016343
0.352401 -160.22 86.293875
0.352679 69.03 87.265419
0.352958 -74.43 86.756058
0.353236 70.93 87.151793
0.353515 38.66 86.632006
0.353794 -41.21 86.740347
0.354072 -14.92 86.810551
0.354351 -5.04 86.631012
0.354629 -63.91 86.689319
0.354908 160.58 87.090256
0.355186 -19.68 86.709806
0.355465 93.14 87.215946
0.355744 162.32 87.002148
0.356022 -32.52 86.54114
0.356301 21.12 86.980847
0.356579 40.9 86.365001
0.356858 -43.37 86.993604
0.357136 -18.06 86.597049
0.357415 184 86.325914
0.357694 -68.76 87.00316
0.357972 35.74 86.531086
0.358251 -50.99 86.794953
0.358529 187.18 87.1088
0.358808 65.37 86.578747
0.359086 11.52 86.730052
0.359365 172.01 86.419214
0.359644 -2.49 87.1206
0.359922 79.06 87.222194
0.360201 -10.95 86.440619
0.360479 90.6 86.741725
0.360758 45.08 86.846796
0.361036 112.35 86.765306
0.361315 60.87 86.756996
0.361594 81.19 86.870888
0.361872 -21.28 86.735812
0.362151 -52.58 86.838014
0.362429 -52.59 86.531406
0.362708 -7.22 86.453874
0.362986 -70.39 86.281151
0.363265 60.21 86.795867
0.363544 73.17 86.381507
0.363822 38.01 86.145263
0.364101 72.2 86.376145
0.364379 18.58 86.272875
0.364658 101.8 86.722871
0.364936 -52.37 85.792828
0.365215 7.67 86.143862
0.365494 45.27 86.4357
0.365772 55.2 86.57708
0.366051 -80.32 86.466883
0.366329 67.34 86.227654
0.366608 -35.11 86.404248
0.366886 11.98 86.16306
0.367165 41.66 86.211627
0.367444 106.55 86.762178
0.367722 -98.41 86.394854
0.368001 46.27 86.253327
0.368279 -43.61 86.662618
0.368558 -72.17 86.009888
0.368836 93.13 86.554971
0.369115 -19.39 86.11313
0.369394 87.29 86.715874
0.369672 -34.7 86.596963
0.369951 16.04 86.436205
0.370229 7.26 86.709427
0.370508 36.3 86.317562
0.370786 -88.01 86.328761
0.371065 -2.2 86.475065
0.371344 22.87 86.208282
0.371622 -128.3 86.415757
0.371901 38.72 86.778317
0.372179 -24.18 86.150798
0.372458 -61.85 86.606526
0.372736 -90.74 86.698884
0.373015 -26.09 86.594503
0.373294 254.15 87.559911
0.373572 44.57 88.29125
0.373851 147.28 89.080404
0.374129 -73.64 89.573858
0.374408 24.85 90.207871
0.374686 55.35 90.134607
0.374965 119.07 90.236397
0.375244 82.29 91.320441
0.375522 -18.77 90.912643
0.375801 -4.57 91.171515
0.376079 153.76 91.454684
0.376358 160.2 91.835548
0.376636 31.57 92.354214
0.376915 181.73 91.749799
0.377194 84.33 92.606436
0.377472 50.16 93.223149
0.377751 4.2 92.415033
0.378029 57.52 94.013712
0.378308 93.6 92.991645
0.378586 80.65 93.852039
0.378865 94.42 94.067326
0.379144 58.77 93.773861
0.379422 26.35 94.783459
0.379701 186.11 94.533674
0.379979 84.16 94.064067
0.380258 59.4 92.393373
0.380536 -145.71 91.325627
0.380815 13.31 91.838549
0.381093 -28.3 91.678189
0.381372 10.64 91.628277
0.381651 258.07 90.895689
0.381929 17.95 90.422294
0.382208 25.17 90.199507
0.382486 -74.76 90.810733
0.382765 -233.44 90.252472
0.383043 -40.96 90.533778
0.383322 -55.48 90.512196
0.383601 -2.53 89.870828
0.383879 172.22 89.688018
0.384158 -12.06 89.391446
0.384436 -75.76 89.355018
0.384715 -255.79 90.408174
0.384993 -64.16 88.861251
0.385272 0.4 88.894221
0.385551 -41.57 88.965737
0.385829 23.01 89.242191
0.386108 67.83 89.575808
0.386386 -5.4 88.533988
0.386665 29.54 89.366385
0.386943 -98.45 88.655224
0.387222 254.56 89.124058
0.387501 -139.86 88.956591
0.387779 -22.07 88.598605
0.388058 -25.15 89.190275
0.388336 -74.1 88.348766
0.388615 -3.3 88.735725
0.388893 56.68 89.00295
0.389172 -28.15 88.251028
0.389451 -23.16 89.201401
0.389729 -32.78 88.26313
0.390008 142.97 88.114113
0.390286 -9.34 88.223275
0.390565 -23.51 87.737091
0.390843 84.04 88.34993
0.391122 -72.13 88.005913
0.391401 -24.57 88.261561
0.391679 234 87.80533
0.391958 -30.27 87.688036
0.392236 98.81 88.16094
0.392515 77.84 87.745679
0.392793 122.42 87.611345
0.393072 69.41 87.735609
0.393351 -1.81 87.268249
0.393629 13.49 88.007466
0.393908 -53.26 87.698221
0.394186 28.09 88.237927
0.394465 59.94 87.857629
0.394743 33.51 87.82101
0.395022 -39.91 88.335975
0.395301 -92.21 87.797418
0.395579 35.63 87.733348
0.395858 171.53 87.530561
0.396136 -115.81 88.276704
0.396415 -122.91 88.072613
0.396693 104.35 87.903423
0.396972 -62.47 87.736142
0.397251 -66.51 88.285585
0.397529 119.29 88.395754
0.397808 -154.49 88.363795
0.398086 42.4 88.008371
0.398365 105.05 88.311763
0.398643 57 88.327489
0.398922 43.75 88.625294
0.399201 115.73 88.392068
0.399479 42.85 87.927096
0.399758 58.24 88.170805
0.400036 -76 88.288268
0.400315 -77.32 88.261097
0.400593 104.89 87.916446
0.400872 23.03 88.096135
0.401151 -130.15 88.248509
0.401429 4.19 88.272932
0.401708 168.94 88.116729
0.401986 -111.33 88.285235
0.402265 27.65 88.152189
0.402543 -152.45 88.363043
0.402822 68.42 88.722291
0.403101 -2.39 88.118627
0.403379 -73.46 88.436202
0.403658 145.99 88.706856
0.403936 69.15 88.023727
0.404215 -30.84 88.795684
0.404493 -146.26 88.096321
0.404772 79.34 88.195589
0.405051 93.07 88.725836
0.405329 -58.31 87.710344
0.405608 14.45 89.036125
0.405886 26.05 88.15717
0.406165 -65.56 88.486954
0.406443 167.28 88.305744
0.406722 -46.46 88.4024
0.407001 -1.51 88.518992
0.407279 104.17 88.425807
0.407558 51.13 88.574469
0.407836 28.73 88.82282
0.408115 192.65 88.135281
0.408393 -27.53 88.964112
0.408672 6.91 88.109542
0.408951 -62.63 88.728914
0.409229 37.7 88.569623
0.409508 142.14 88.304775
0.409786 -108.27 88.300645
0.410065 -127.97 87.512133
0.410343 -103.67 88.376412
0.410622 -79.28 88.449893
0.410901 155.53 88.094341
0.411179 91.28 88.528102
0.411458 141.72 87.925431
0.411736 -66.05 87.779815
0.412015 0.57 88.427291
0.412293 -87.72 88.440538
0.412572 189.03 88.281416
0.412851 110.93 88.053866
0.413129 116.98 88.188914
0.413408 -97.01 88.274197
0.413686 76.44 88.367156
0.413965 107.67 88.048422
0.414243 136.1 88.676505
0.414522 76.21 87.879562
0.414801 84.13 88.192418
0.415079 -84.79 87.992036
0.415358 -0.38 88.246692
0.415636 60.05 88.586167
0.415915 12.16 87.76808
0.416193 26.5 87.690812
0.416472 -10.25 87.695029
0.416751 -9.66 87.641714
0.417029 -72.6 88.463899
0.417308 -103.17 87.81029
0.417586 -70.46 87.833242
0.417865 44.88 87.508623
0.418143 63.2 87.737293
0.418422 73.11 87.929751
0.4187 93.74 87.803023
0.418979 60.51 88.065075
0.419258 -31.49 87.546525
0.419536 35.52 87.839141
0.419815 -21.44 87.817457
0.420093 -166.55 87.66798
0.420372 -47.69 88.037663
0.42065 81.39 87.703234
0.420929 175.93 87.622188
0.421208 -60.95 88.178702
0.421486 129.36 87.837837
0.421765 61.93 88.152298
0.422043 28.75 88.027918
0.422322 101.77 88.322333
0.4226 57.84 88.231633
0.422879 57.76 87.844805
0.423158 -113.93 88.036508
0.423436 49.29 88.108704
0.423715 -166.43 88.041643
0.423993 -39.88 88.318644
0.424272 0.57 88.126229
0.42455 32.97 88.09178
0.424829 77.6 88.574158
0.425108 -47.53 88.083926
0.425386 142.73 88.105488
0.425665 25.02 88.286185
0.425943 -85.49 88.098971
0.426222 -86.4 88.355759
0.4265 79.15 88.326653
0.426779 -3.89 88.681387
0.427058 94.38 88.382707
0.427336 -77.49 88.042827
0.427615 4.92 88.489544
0.427893 143.72 88.280151
0.428172 149.55 88.397687
0.42845 47.4 88.859104
0.428729 -4.81 87.885682
0.429008 6.74 88.666209
0.429286 9.21 88.414876
0.429565 -26.11 88.696415
0.429843 -22.86 88.391961
0.430122 24.95 88.332655
0.4304 148.51 88.70497
0.430679 30.35 87.958508
0.430958 54.31 88.351128
0.431236 69.33 88.443581
0.431515 1.59 88.70706
0.431793 74.11 89.034142
0.432072 36.26 88.178138
0.43235 143.12 89.746907
0.432629 144.85 90.936368
0.432908 11.36 91.595598
0.433186 -74.97 92.704909
0.433465 53.99 92.509455
0.433743 -8.17 93.755676
0.434022 -67.82 93.599636
0.4343 -109.91 94.010911
0.434579 121.72 94.694134
0.434858 66.99 94.429601
0.435136 -202.26 95.65159
0.435415 -107.16 95.564022
0.435693 -87.89 95.655987
0.435972 -152.75 96.972026
0.43625 64.87 96.114544
0.436529 95.23 97.034705
0.436808 -49.78 97.398299
0.437086 -5.81 97.366364
0.437365 -187.01 98.501012
0.437643 79.8 97.80779
0.437922 -12.78 99.218437
0.4382 -71.3 99.232924
0.438479 11.83 99.623541
0.438758 144.98 99.73736
0.439036 40.37 97.754632
0.439315 135.4 96.473175
0.439593 -48.35 96.234278
0.439872 -51.31 96.025063
0.44015 60.91 95.25052
0.440429 165.46 94.39862
0.440708 -16.02 94.515622
0.440986 73.08 94.356199
0.441265 -61.2 94.290827
0.441543 -75.52 94.478805
0.441822 100.24 94.311634
0.4421 -52.4 93.840717
0.442379 -73.91 93.397829
0.442658 92.14 93.184308
0.442936 -20.14 93.262536
0.443215 -42.54 93.547694
0.443493 65.04 93.079304
0.443772 41.42 92.773672
0.44405 -58.69 92.758715
0.444329 157.84 93.430572
0.444608 92.5 93.312376
0.444886 -82.71 93.299743
0.445165 -18.25 92.805765
0.445443 21.95 92.926447
0.445722 -34.58 92.613093
0.446 8.06 93.315534
0.446279 122.91 92.955339
0.446558 106.35 92.510152
0.446836 178.29 92.910851
0.447115 143.58 92.65403
0.447393 -150.17 92.950848
0.447672 16.74 92.426127
0.44795 47.17 92.482502
0.448229 122.89 92.285282
0.448508 -27.97 92.141192
0.448786 -173.57 91.990741
0.449065 187.82 92.192176
0.449343 -155.96 91.342944
0.449622 53.8 91.842472
0.4499 -45.56 91.534403
0.450179 -26.91 92.111219
0.450458 3.71 91.470976
0.450736 59.74 91.422317
0.451015 161.81 91.072082
0.451293 177.02 91.495166
0.451572 169.57 91.289253
0.45185 -128.6 91.216788
0.452129 -40.96 91.293186
0.452408 -28.03 90.912319
0.452686 -93.71 91.47764
0.452965 19.32 90.956284
0.453243 143.29 91.506166
0.453522 -92.46 91.064605
0.4538 139.85 90.999596
0.454079 41.31 91.16693
0.454357 24.33 91.192604
0.454636 7.01 91.263386
0.454915 -57.12 91.639304
0.455193 40.6 91.029557
0.455472 170.93 91.32523
0.45575 112.79 90.847233
0.456029 -65.01 91.607296
0.456307 150.74 91.327382
0.456586 31.68 90.597858
0.456865 113.15 91.245775
0.457143 3.96 90.627692
0.457422 110.14 91.592668
0.4577 57.59 91.177314
0.457979 7.45 90.727525
0.458257 -103.89 91.545266
0.458536 -41.68 90.976272
0.458815 43.56 91.199652
0.459093 239.08 90.702796
0.459372 91.09 91.334048
0.45965 107.29 91.20376
0.459929 -101.24 90.685386
0.460207 130.61 91.738012
0.460486 144.89 90.508251
0.460765 128.38 91.440011
0.461043 92.3 91.065416
0.461322 -38.23 91.151267
0.4616 267.01 91.215341
0.461879 57.15 90.688836
0.462157 101.17 91.525865
0.462436 -115.04 91.1121
0.462715 68.21 91.123158
0.462993 10.39 91.450984
0.463272 -29.41 90.819473
0.46355 45.83 91.530962
0.463829 -108.49 91.132694
0.464107 -21.5 90.765
0.464386 -19.81 91.379108
0.464665 67.29 90.431315
0.464943 11.42 91.475034
0.465222 59.45 90.699795
0.4655 50.49 91.561044
0.465779 49.86 91.224207
0.466057 -85.33 90.683926
0.466336 -48.3 91.264367
0.466615 67.89 90.577063
0.466893 -18.55 91.51849
0.467172 33.89 90.680526
0.46745 113.92 90.846999
0.467729 -90.17 91.315079
0.468007 -24.17 90.911085
0.468286 97.69 91.101209
0.468565 -11.66 90.984493
0.468843 179.41 90.839731
0.469122 -103.68 91.229842
0.4694 154.98 90.609245
0.469679 202.37 91.152449
0.469957 25.18 90.414747
0.470236 -24.66 90.820992
0.470515 42.69 90.516837
0.470793 -19.63 90.750719
0.471072 9.13 90.914701
0.47135 -169.56 90.872137
0.471629 82.43 91.118322
0.471907 -92.52 90.428846
0.472186 -72.02 91.109357
0.472465 24.51 90.799142
0.472743 -3.53 91.016969
0.473022 3.24 90.056065
0.4733 62.09 90.396114
0.473579 44.26 90.745884
0.473857 -107.24 90.731219
0.474136 -27.07 91.010905
0.474415 -42.52 90.974799
0.474693 -119.1 90.430767
0.474972 31.17 91.230655
0.47525 -100.72 90.779384
0.475529 4.9 90.860239
0.475807 122.11 90.93135
0.476086 121.89 90.429283
0.476365 -24.25 91.584353
0.476643 55.96 90.576042
0.476922 -31.83 91.230991
0.4772 -50.33 91.423544
0.477479 48.29 90.805927
0.477757 -7.27 91.002552
0.478036 -14.59 90.628765
0.478315 8.57 91.344373
0.478593 74.44 90.873076
0.478872 24.4 90.723226
0.47915 164.69 91.559415
0.479429 -114.99 90.368754
0.479707 33.92 91.512431
0.479986 62.98 91.071449
0.480265 15.94 91.279133
0.480543 -14.08 91.363813
0.480822 26.68 91.006731
0.4811 139.5 91.420542
0.481379 -69.29 90.898778
0.481657 3.46 91.312694
0.481936 75.82 91.262518
0.482215 -186.05 91.356196
0.482493 57.44 91.165383
0.482772 -0.97 91.0468
0.48305 -92.89 91.304968
0.483329 53.21 90.784121
0.483607 -126.89 91.401738
0.483886 59.87 91.18605
0.484165 52.1 90.891481
0.484443 -145.29 91.008882
0.484722 -21.44 90.340232
0.485 117.22 91.001246
0.485279 76.67 90.960231
0.485557 10.54 90.894628
0.485836 -24.41 91.022531
0.486115 -83.28 90.514811
0.486393 18.15 90.722803
0.486672 82.47 90.702696
0.48695 -13.5 90.727698
0.487229 -69.97 91.188797
0.487507 -6.09 90.416314
0.487786 15.18 90.736061
0.488065 55.47 90.195122
0.488343 138.35 90.70553
0.488622 -170.85 90.353472
0.4889 -228.78 90.448744
0.489179 45.99 90.961582
0.489457 55.26 90.268975
0.489736 -20.49 91.31071
0.490014 134.33 90.479968
0.490293 75.53 90.639691
0.490572 7.28 90.744475
0.49085 85.92 89.762496
0.491129 218.2 90.468077
0.491407 -101.24 91.369287
0.491686 155.95 93.428366
0.491964 3.55 94.019682
0.492243 -24.59 93.837397
0.492522 -22.02 95.550421
0.4928 11.41 95.175752
0.493079 204.33 96.158739
0.493357 233.69 96.182729
0.493636 55.5 96.401683
0.493914 7.98 97.234165
0.494193 -126.98 96.750929
0.494472 172.83 98.138877
0.49475 4.48 98.350404
0.495029 -23.01 98.167327
0.495307 -72.88 99.170488
0.495586 -188.09 98.895199
0.495864 -2.33 99.760767
0.496143 -44.96 100.04555
0.496422 -117.08 100.54826
0.4967 -43.28 101.12021
0.496979 -29.78 101.20244
0.497257 71.54 101.76375
0.497536 -16.79 101.81034
0.497814 247.27 102.381
0.498093 214.81 100.63466
0.498372 56.39 99.040136
0.49865 -56.12 99.208641
0.498929 182.72 98.066979
0.499207 116.85 97.681
0.499486 -72.76 96.865842
0.499764 70.46 97.213767
0.500043 49.02 96.732237
0.500322 112.33 97.179174
0.5006 -76.98 96.011532
0.500879 82.1 96.371027
0.501157 11.2 96.261522
0.501436 91.14 96.05673
0.501714 11.68 95.691129
0.501993 8.43 95.89123
0.502272 28.24 95.560596
0.50255 -8.51 95.470467
0.502829 -48.49 94.894574
0.503107 -289.41 95.343095
0.503386 -69.9 95.753563
0.503664 2.29 94.529495
0.503943 -170.94 95.350227
0.504222 -1.98 93.906925
0.5045 114.56 95.854615
0.504779 -62.47 94.889623
0.505057 144.65 94.89459
0.505336 68.73 94.960461
0.505614 95.19 94.390252
0.505893 -60.04 94.816254
0.506172 116.08 94.602667
0.50645 165.27 94.439843
0.506729 51.94 95.178789
0.507007 33.07 93.812176
0.507286 225.54 94.837973
0.507564 23.98 94.15751
0.507843 162.32 94.573485
0.508122 -49.55 94.994476
0.5084 -4.2 94.226871
0.508679 66.86 94.742723
0.508957 -12.14 94.241662
0.509236 149.14 94.611684
0.509514 26.99 94.534936
0.509793 71.75 94.358359
0.510072 74.33 94.356402
0.51035 -26.34 94.199084
0.510629 38.48 94.607023
0.510907 215.75 94.285771
0.511186 -43.06 93.876415
0.511464 2.17 94.120377
0.511743 2.25 94.273024
0.512022 -33.67 94.303938
0.5123 -60.37 94.068306
0.512579 104.28 94.401719
0.512857 32.57 94.477818
0.513136 42.78 93.960441
0.513414 44.96 94.37357
0.513693 52.24 93.748274
0.513972 -74.74 94.270236
0.51425 37.24 93.796499
0.514529 177 94.100232
0.514807 54.19 93.899379
0.515086 129.36 94.000857
0.515364 45.07 93.913069
0.515643 124.47 94.022393
0.515922 -75.06 93.737491
0.5162 -72.39 94.029221
0.516479 193.46 93.944297
0.516757 68.01 94.124812
0.517036 -4.34 93.919895
0.517314 60.43 93.827964
0.517593 114.53 93.63858
0.517872 71.22 93.699101
0.51815 29.44 94.400181
0.518429 35.27 93.645498
0.518707 -25.52 94.096819
0.518986 113.28 93.656234
0.519264 2.65 94.117354
0.519543 -124.46 94.23149
0.519822 35 93.283416
0.5201 149.75 93.61393
0.520379 51.53 93.614477
0.520657 110.4 94.06676
0.520936 130.04 94.072727
0.521214 -92.07 93.786114
0.521493 12.52 93.614181
0.521772 32.06 93.517915
0.52205 -67.66 93.785453
0.522329 123.89 94.033143
0.522607 -50.86 93.62882
0.522886 -51.61 93.556512
0.523164 76.87 93.419146
0.523443 56.02 93.654858
0.523722 159.44 93.616314
0.524 35.91 93.326976
0.524279 86.24 92.797673
0.524557 -172.36 93.253908
0.524836 -23.5 92.897721
0.525114 -23.99 92.794745
0.525393 143.91 92.949366
0.525671 229.97 92.957473
0.52595 18.16 93.098988
0.526229 41.86 93.105822
0.526507 -64.73 92.73428
0.526786 118.64 92.846116
0.527064 28.57 92.757814
0.527343 -42.18 92.815501
0.527621 126.07 92.605696
0.5279 -13.61 92.823086
0.528179 -152.86 92.215114
0.528457 38.79 92.554364
0.528736 54.74 92.859302
0.529014 145.06 92.394012
0.529293 153.62 92.623038
0.529571 35.7 92.835093
0.52985 104.67 92.891244
0.530129 126.05 92.536745
0.530407 -36.2 92.861405
0.530686 44.94 92.783899
0.530964 72.89 92.853598
0.531243 -25.2 92.720326
0.531521 115.6 93.038241
0.5318 27.27 92.938858
0.532079 -36.02 93.149342
0.532357 -96.37 92.812996
0.532636 -103.61 92.784772
0.532914 -16.58 93.523235
0.533193 -1.39 93.210508
0.533471 83.1 92.705089
0.53375 128.39 92.561003
0.534029 84.18 93.292075
0.534307 -85.67 92.768055
0.534586 -69.01 92.634918
0.534864 73.72 93.027518
0.535143 143.48 92.965219
0.535421 -43.46 93.05035
0.5357 186.64 93.145953
0.535979 38.87 93.167434
0.536257 185.01 92.897082
0.536536 38.9 93.189007
0.536814 67.17 92.662523
0.537093 8.5 93.414332
0.537371 -69.97 92.758994
0.53765 11.67 93.222095
0.537929 181.79 92.963117
0.538207 -103.27 92.419561
0.538486 -22.97 92.645861
0.538764 110.23 92.714698
0.539043 127.32 92.48501
0.539321 -78.04 92.661337
0.5396 -15.01 92.37256
0.539879 41.2 92.766908
0.540157 16.91 92.205076
0.540436 27.85 92.518477
0.540714 48.23 92.357977
0.540993 77.02 92.360451
0.541271 200.29 92.378157
0.54155 10.94 92.055036
0.541829 25.05 92.290554
0.542107 7.38 91.958223
0.542386 -62.97 92.72057
0.542664 86.27 92.356241
0.542943 -9.38 92.190359
0.543221 68.43 91.949861
0.5435 96.68 92.240364
0.543779 -80.93 91.917965
0.544057 -67.61 92.044994
0.544336 153.35 92.117084
0.544614 119.98 92.183069
0.544893 42.52 91.767843
0.545171 -168.44 92.205951
0.54545 178.65 91.734606
0.545729 33.69 91.805779
0.546007 129.84 92.204111
0.546286 -61.62 92.069652
0.546564 75.31 91.571568
0.546843 11.66 91.711985
0.547121 171.09 92.125032
0.5474 -45.07 92.223013
0.547679 98.6 92.135273
0.547957 22.24 91.826919
0.548236 246.65 92.246734
0.548514 66.6 92.079672
0.548793 -141.31 91.949196
0.549071 129.36 92.185108
0.54935 81.91 92.360457
0.549629 122.98 92.623052
0.549907 47.53 92.240252
0.550186 26.65 92.434824
0.550464 204.82 94.239773
0.550743 123.39 95.497525
0.551021 -23.02 96.542894
0.5513 -71.43 97.121644
0.551579 38.44 98.040462
0.551857 -11.71 98.748333
0.552136 -85.61 98.591957
0.552414 -199.27 99.702323
0.552693 284.42 99.864447
0.552971 44.64 100.43572
0.55325 119.16 100.95744
0.553529 -20.19 101.11778
0.553807 105.8 101.81861
0.554086 -85.27 102.11266
0.554364 7.01 102.95051
0.554643 146.17 103.21741
0.554921 139.73 103.43401
0.5552 -68.11 104.22088
0.555479 158.18 104.94817
0.555757 -94.4 105.0051
0.556036 104.54 105.58157
0.556314 -100.11 105.81865
0.556593 -94.46 106.11276
0.556871 -150.43 105.82879
0.55715 -183.27 104.22762
0.557429 -48.21 103.00804
0.557707 42.76 102.34797
0.557986 -206.73 101.33256
0.558264 -52.31 100.91056
0.558543 154.5 100.17553
0.558821 81.73 100.05433
0.5591 -93.2 99.600626
0.559379 -41.75 99.518032
0.559657 183.31 99.592769
0.559936 -9.79 99.035075
0.560214 -27.56 98.921417
0.560493 -5.73 98.654737
0.560771 75.28 98.796808
0.56105 108.23 98.968128
0.561329 19.74 98.646024
0.561607 168.15 98.551337
0.561886 -58.61 97.97942
0.562164 122.84 98.377867
0.562443 -25.81 98.613002
0.562721 63.6 97.556438
0.563 -35.62 97.579852
0.563278 -41.89 97.570068
0.563557 -6.57 97.492403
0.563836 132.97 98.202063
0.564114 85.42 97.331143
0.564393 -13.38 97.378559
0.564671 -6.3 97.311296
0.56495 -39.17 97.427727
0.565228 112.88 97.841281
0.565507 194.03 97.681286
0.565786 41.42 97.812699
0.566064 14.49 97.930921
0.566343 -29.3 97.054745
0.566621 -7.83 96.900393
0.5669 74.41 97.40685
0.567178 3.79 97.445288
0.567457 -101.87 97.094672
0.567736 -16.01 96.79582
0.568014 306.25 97.323404
0.568293 178.55 97.173276
0.568571 -42.28 96.364518
0.56885 4.34 97.070958
0.569128 -27.77 96.26307
0.569407 43.71 96.911359
0.569686 -12.38 96.459662
0.569964 119.47 96.233993
0.570243 115.66 96.521367
0.570521 22.64 96.522908
0.5708 47.72 96.260044
0.571078 -47.44 96.040861
0.571357 -51.7 95.611961
0.571636 10.82 96.236745
0.571914 110.86 96.225547
0.572193 -43.71 95.525998
0.572471 115.31 95.851686
0.57275 164.34 95.632372
0.573028 33.89 95.987575
0.573307 102.2 95.674996
0.573586 28.18 95.854305
0.573864 -99.03 95.851509
0.574143 75.77 95.793039
0.574421 130.44 95.703069
0.5747 69.07 95.856127
0.574978 10.46 95.291275
0.575257 111.57 95.959018
0.575536 -27.96 95.861171
0.575814 60.45 95.592472
0.576093 147.17 95.237006
0.576371 -0.62 95.512953
0.57665 -94.86 95.99249
0.576928 72.63 95.545296
0.577207 -6.55 95.323215
0.577486 -18.56 95.467563
0.577764 24.58 95.453055
0.578043 194.55 95.6242
0.578321 -105.57 95.51487
0.5786 257.67 95.048965
0.578878 93.06 95.902557
0.579157 50.78 94.907005
0.579436 82.88 95.632403
0.579714 168.81 95.086257
0.579993 59.89 95.38687
0.580271 152.86 95.896474
0.58055 -55.41 94.845418
0.580828 133.51 95.375682
0.581107 106.37 94.761063
0.581386 -19.49 95.202264
0.581664 5.58 94.869444
0.581943 -3.41 94.914846
0.582221 100.19 95.225116
0.5825 -103.67 94.981915
0.582778 81.24 95.01989
0.583057 36.94 94.824803
0.583336 -98.35 95.152844
0.583614 -102.05 95.072649
0.583893 -73.15 94.666644
0.584171 -50.71 95.240249
0.58445 42.9 95.087042
0.584728 181.25 94.849265
0.585007 -45.76 94.737304
0.585286 -115.76 94.639241
0.585564 90.36 95.099665
0.585843 102.42 95.43622
0.586121 -102.54 95.159127
0.5864 -107.88 95.223644
0.586678 147.56 95.03243
0.586957 101.9 94.925264
0.587236 114.45 95.386526
0.587514 -52.69 94.901097
0.587793 82.67 94.867117
0.588071 -89.04 94.570104
0.58835 -62.03 94.594469
0.588628 -76.33 94.691931
0.588907 57.22 94.354734
0.589186 -199.68 94.968682
0.589464 170.74 94.869227
0.589743 -99.65 94.380974
0.590021 66.06 94.594419
0.5903 -56.81 93.691241
0.590578 246.73 94.889141
0.590857 -26.41 94.042183
0.591136 -2.89 93.537432
0.591414 -34.75 93.902445
0.591693 163.07 94.139769
0.591971 16.21 94.889316
0.59225 -9.49 94.666663
0.592528 124.39 94.314544
0.592807 -42.6 94.459621
0.593086 98.55 94.582154
0.593364 -43.32 94.306823
0.593643 97.76 94.345193
0.593921 133.73 94.199828
0.5942 -107.77 94.590986
0.594478 -46.65 94.38061
0.594757 3.13 94.040937
0.595036 66.29 94.40096
0.595314 38.77 94.404944
0.595593 27.34 94.428696
0.595871 -12.06 94.294398
0.59615 -8.35 93.994637
0.596428 66.63 94.284973
0.596707 194.69 94.702852
0.596986 23.79 93.961454
0.597264 -51.43 94.181043
0.597543 33.9 94.257281
0.597821 3.21 94.060295
0.5981 23.75 94.111601
0.598378 -183.35 94.247575
0.598657 71.76 94.07809
0.598935 -210.12 94.129677
0.599214 -60.26 94.197173
0.599493 39.57 93.769712
0.599771 154.66 94.022608
0.60005 71.63 94.400239
0.600328 113.34 93.969749
0.600607 28.28 94.347315
0.600885 -34.58 93.795261
0.601164 6.62 93.917854
0.601443 164.99 94.395691
0.601721 50.18 93.765131
0.602 136.22 94.023243
0.602278 -50.78 94.173306
0.602557 55.59 93.94872
0.602835 11.14 94.247787
0.603114 150.04 94.321237
0.603393 -43.34 94.569746
0.603671 -71.11 94.942457
0.60395 48.94 94.076519
0.604228 100.35 94.971408
0.604507 126.11 94.542613
0.604785 -63.24 94.384698
0.605064 61.9 94.49774
0.605343 13.02 94.665836
0.605621 -168.62 94.302599
0.6059 34.17 94.364826
0.606178 -143.32 94.884141
0.606457 20.29 94.57937
0.606735 85.86 94.660853
0.607014 -31.42 94.321567
0.607293 138.03 94.640759
0.607571 -58.53 94.264512
0.60785 101.89 94.932671
0.608128 -166.91 94.375384
0.608407 -54.93 94.712283
0.608685 -148.79 94.403387
0.608964 -146.06 94.225426
0.609243 160.17 94.033133
0.609521 2.36 96.454556
0.6098 37.63 97.6318
0.610078 -63.81 99.389586
0.610357 127.16 99.683825
0.610635 -36.62 100.99594
0.610914 94.3 101.18261
0.611193 -13.61 101.88287
0.611471 99.28 102.03849
0.61175 -20.68 103.14473
0.612028 -31.89 103.75609
0.612307 -62.87 103.8532
0.612585 185.46 104.45113
0.612864 -144.1 104.85166
0.613143 -5.08 105.86383
0.613421 18.55 105.98849
0.6137 50.94 106.6609
0.613978 26.94 106.1766
0.614257 -33 106.98074
0.614535 112.37 107.7095
0.614814 -85.32 107.90231
0.615093 107.86 107.86195
0.615371 203.42 108.53072
0.61565 45.66 109.01915
0.615928 -134.36 109.40563
0.616207 -165.93 107.05735
0.616485 50.33 105.2169
0.616764 -22.47 104.52414
0.617043 -198.09 103.32302
0.617321 267.5 102.77222
0.6176 -50.26 102.91042
0.617878 223.54 102.28138
0.618157 108.44 101.64483
0.618435 -162.76 101.35287
0.618714 -113.22 101.52242
0.618993 81.01 101.24028
0.619271 118.4 100.84631
0.61955 17.49 101.31894
0.619828 -8.44 100.49348
0.620107 -97.62 100.53434
0.620385 106.26 100.46419
0.620664 -30.7 100.55018
0.620943 101.04 99.746029
0.621221 201.56 99.805771
0.6215 26.5 99.704084
0.621778 -74.06 99.926718
0.622057 96.86 99.234927
0.622335 191.5 99.622584
0.622614 24.91 99.278383
0.622893 55.86 98.763021
0.623171 29.77 100.0697
0.62345 51.87 99.520073
0.623728 117.79 99.700003
0.624007 112.7 99.1896
0.624285 -22.61 98.981197
0.624564 -45.87 99.455778
0.624843 -125.42 99.281574
0.625121 -321.59 99.114569
0.6254 90.8 99.279428
0.625678 -17.16 98.686686
0.625957 97.91 98.965185
0.626235 48.33 98.810806
0.626514 26.59 98.648811
0.626793 -29.04 99.282833
0.627071 29.04 98.698024
0.62735 -37 98.87998
0.627628 36.15 98.372497
0.627907 86.92 98.874593
0.628185 -86.01 98.83037
0.628464 -44.49 98.619052
0.628743 -38.62 98.354747
0.629021 47.63 99.145276
0.6293 158.56 98.203215
0.629578 9.4 98.703981
0.629857 58.05 98.623078
0.630135 -108.61 98.629089
0.630414 -13.69 98.480228
0.630693 -73.38 98.738236
0.630971 236.56 98.707264
0.63125 -12.56 98.826768
0.631528 61.03 98.337461
0.631807 13.81 98.684027
0.632085 -56.65 98.10166
0.632364 -38.61 98.157482
0.632643 24.06 98.104915
0.632921 198.28 98.244595
0.6332 161.7 98.360503
0.633478 66.37 97.962053
0.633757 37.46 98.232596
0.634035 97.94 98.013016
0.634314 -121.96 98.102764
0.634592 123.08 98.166582
0.634871 -118.61 98.328689
0.63515 2.25 97.811835
0.635428 267.18 98.266852
0.635707 21.29 97.814688
0.635985 -55.42 98.522932
0.636264 19.24 97.079817
0.636542 369.61 97.433236
0.636821 -145.49 97.612571
0.6371 105.79 97.320038
0.637378 46.25 97.40414
0.637657 127.87 97.472896
0.637935 -144.09 97.248904
0.638214 177.48 97.043008
0.638492 85.29 97.076318
0.638771 54.26 96.707357
0.63905 135.85 97.26649
0.639328 -53.59 96.912304
0.639607 62.36 97.150835
0.639885 76.68 96.598314
0.640164 -166.15 96.985598
0.640442 -13.54 96.868535
0.640721 23.24 96.410014
0.641 -132.39 96.434751
0.641278 31.57 96.88301
0.641557 165.37 96.69296
0.641835 -134.98 96.256983
0.642114 184.87 96.69221
0.642392 -170.48 96.523172
0.642671 -57.19 96.899449
0.64295 110.96 96.951421
0.643228 132.17 97.089058
0.643507 8.55 96.498493
0.643785 -35.98 96.820881
0.644064 38.78 97.1169
0.644342 103.45 97.142752
0.644621 98.79 96.639634
0.6449 103.87 96.949978
0.645178 242.12 97.081124
0.645457 100.76 96.703528
0.645735 -24.88 96.74907
0.646014 68.05 96.601464
0.646292 -32.26 97.02233
0.646571 57.63 96.797673
0.64685 69.93 96.724404
0.647128 171.76 96.566576
0.647407 11.92 96.629224
0.647685 -54.29 96.596855
0.647964 176.84 96.638641
0.648242 85.01 96.439799
0.648521 34.95 97.133606
0.6488 77.35 96.844681
0.649078 112.52 96.777207
0.649357 52.47 96.631559
0.649635 99.04 97.152112
0.649914 39.36 96.591027
0.650192 8.14 97.03461
0.650471 9.1 96.703767
0.65075 131.03 96.964956
0.651028 -45.71 96.776183
0.651307 66.56 96.664963
0.651585 -35.86 97.056261
0.651864 25.63 96.670998
0.652142 156.81 96.522749
0.652421 -123.15 95.814441
0.6527 23.55 97.040061
0.652978 -73.63 96.820847
0.653257 -51.53 96.317223
0.653535 113.03 96.440321
0.653814 73.99 96.518232
0.654092 53.45 96.366504
0.654371 -195.88 96.677402
0.65465 50.95 96.078678
0.654928 -125.55 96.581628
0.655207 116.24 96.066958
0.655485 -1.92 96.503802
0.655764 30.51 96.649319
0.656042 -102.72 96.184248
0.656321 145.95 96.422483
0.6566 -17.77 96.486154
0.656878 45.33 96.680932
0.657157 -109.53 96.599738
0.657435 131.18 96.059498
0.657714 125.56 96.729231
0.657992 -44.72 96.76397
0.658271 172.98 96.221958
0.65855 116.2 96.709946
0.658828 -19.3 96.009057
0.659107 65.84 97.125797
0.659385 -3.31 96.718319
0.659664 74.36 97.02472
0.659942 -67.83 96.674103
0.660221 84.06 97.082531
0.6605 6.27 96.641135
0.660778 -115.17 96.849095
0.661057 -35.51 97.029745
0.661335 -34.09 96.66597
0.661614 156.49 97.08173
0.661892 141.7 96.796597
0.662171 -75.66 96.310217
0.66245 -50.99 96.455653
0.662728 -3.1 96.916724
0.663007 -0.52 96.651061
0.663285 -88.73 96.787613
0.663564 77.42 96.206353
0.663842 -41.62 96.334358
0.664121 -2.16 95.990578
0.6644 156.26 96.362302
0.664678 -23.67 96.220677
0.664957 -208.51 96.07138
0.665235 7.36 96.208517
0.665514 -74.8 96.156829
0.665792 6.45 95.959401
0.666071 169.42 96.050334
0.66635 -159.43 96.364697
0.666628 -155.38 96.048627
0.666907 -133.82 96.002776
0.667185 89.09 95.875415
0.667464 123.38 96.001899
0.667742 -37.99 96.281262
0.668021 101.87 96.077703
0.6683 125.58 95.96687
0.668578 74.11 98.501181
0.668857 151.33 99.732668
0.669135 188.98 100.65517
0.669414 5.81 100.82603
0.669692 56.46 102.7147
0.669971 3.19 102.92459
0.67025 -150.85 103.91459
0.670528 148.74 103.82834
0.670807 35.73 105.19484
0.671085 8.65 105.82906
0.671364 14.6 106.34773
0.671642 -122.88 107.091
0.671921 -179.91 107.53859
0.672199 114.45 108.87114
0.672478 201.67 108.68368
0.672757 74.89 109.11098
0.673035 66.87 110.54874
0.673314 52.9 110.70594
0.673592 -179.84 110.5065
0.673871 50.23 111.84885
0.674149 6.08 111.31102
0.674428 -259.32 112.553
0.674707 -9.82 113.02122
0.674985 16.6 113.45965
0.675264 31.02 113.65348
0.675542 -4 114.27889
0.675821 195.35 114.65232
0.676099 185.27 115.32743
0.676378 95.03 115.21549
0.676657 6.11 117.09795
0.676935 163.95 116.99885
0.677214 147.53 116.79495
0.677492 35.45 117.90958
0.677771 114.24 118.13742
0.678049 87.81 119.74332
0.678328 22.89 118.99635
0.678607 97.56 119.74146
0.678885 -30.5 120.01599
0.679164 -223.55 120.9698
0.679442 -26.87 120.77861
0.679721 41.43 122.82079
0.679999 150.95 122.22492
0.680278 75.5 122.58285
0.680557 152.05 123.77666
0.680835 -44.23 123.97775
0.681114 0.83 124.70488
0.681392 47.08 124.67355
0.681671 155.36 125.11766
0.681949 -24.38 126.37387
0.682228 -74.38 126.25933
0.682507 201.75 126.86769
0.682785 18.89 126.45521
0.683064 102.44 127.03214
0.683342 -28.07 127.14079
0.683621 165.51 127.89664
0.683899 73.82 128.44169
0.684178 -214.79 128.59507
0.684457 -89.02 129.20054
0.684735 -75.28 128.9803
0.685014 -71.88 129.06399
0.685292 -29.77 129.99171
0.685571 92.25 130.69036
0.685849 71.12 131.62794
0.686128 -25.89 131.4173
0.686407 92.88 131.61545
0.686685 -97.25 133.36772
0.686964 -80.96 133.86019
0.687242 246.33 133.49631
0.687521 127.54 135.06163
0.687799 71.1 135.8322
0.688078 23.83 135.45865
0.688357 83.06 136.30674
0.688635 25.73 137.41237
0.688914 -106.77 138.03079
0.689192 -39.55 138.19677
0.689471 90.19 137.87124
0.689749 64.88 140.09981
0.690028 78.11 139.9248
0.690307 -124.58 141.10313
0.690585 -94.32 141.22089
0.690864 -111.7 142.05289
0.691142 84.43 143.19025
0.691421 -56.77 143.33909
0.691699 70.47 143.8825
0.691978 -72.94 145.05315
0.692257 209.72 144.9367
0.692535 110.21 146.00615
0.692814 101.55 146.76844
0.693092 -0.46 144.38916
0.693371 27.62 147.79698
0.693649 54.35 147.74613
0.693928 -47.77 150.29037
0.694207 83.01 147.91994
0.694485 -23.74 149.62819
0.694764 -165.35 150.63145
0.695042 -25.47 150.72402
0.695321 -150.32 152.00605
0.695599 -182.06 152.92904
0.695878 -200.85 152.25575
0.696157 180.3 154.298
0.696435 -2.42 154.47461
0.696714 32.28 154.05875
0.696992 153.56 157.32346
0.697271 -146.64 157.3772
0.697549 114.47 158.60077
0.697828 372.35 158.72623
0.698107 7.09 158.99179
0.698385 64.81 161.41462
0.698664 141.78 161.53754
0.698942 256.34 161.58814
0.699221 -28.61 162.84416
0.699499 215.91 164.89408
0.699778 -214.08 165.3352
0.700057 -42.74 164.79031
0.700335 272.51 165.98007
0.700614 -107.83 169.85567
0.700892 -79.8 169.10791
0.701171 73.34 169.79353
0.701449 416.44 172.33674
0.701728 -144.07 172.44991
0.702007 45.53 175.22788
0.702285 -2.21 175.27919
0.702564 -56.75 175.79487
0.702842 111.93 179.12455
0.703121 168.76 180.43635
0.703399 -73.25 181.08606
0.703678 -102.34 180.45431
0.703957 -163.83 183.56019
0.704235 43.02 184.86989
0.704514 -333.11 186.38414
0.704792 -29.48 186.22676
0.705071 -97.52 186.09122
0.705349 43.3 189.20399
0.705628 262.11 194.44021
0.705907 -126.13 191.1487
0.706185 -68.48 195.8284
0.706464 149.27 197.41089
0.706742 -67.64 197.02589
0.707021 -378.94 196.33532
0.707299 138.88 197.42704
0.707578 112.66 198.99971
0.707856 48.72 201.39267
0.708135 -11.89 199.95677
0.708414 232.78 198.63176
0.708692 -16.2 200.61587
0.708971 242.48 203.59429
0.709249 7.68 207.22209
0.709528 43.06 203.32796
0.709806 60.2 209.53835
0.710085 -105.79 209.84002
0.710364 -371.03 214.85819
0.710642 -225.5 213.27299
0.710921 -188.83 217.54629
0.711199 -23.22 219.802
0.711478 -319.51 224.73634
0.711756 -281.08 224.47212
0.712035 -201.83 224.38698
0.712314 -104.51 231.79324
0.712592 -233.56 232.04476
0.712871 377.74 239.22496
0.713149 395.33 236.34012
0.713428 162.82 244.8518
0.713706 -213.97 250.08782
0.713985 -207.15 249.00448
0.714264 203.73 247.6398
0.714542 121.91 252.71072
0.714821 -115.78 255.10143
0.715099 133.84 259.32888
0.715378 374.46 255.52949
0.715656 392.13 262.64006
0.715935 -249.75 265.06931
0.716214 -204.87 267.64702
0.716492 81.19 266.3923
0.716771 -215.52 265.74989
0.717049 68.94 273.17592
0.717328 507.43 278.49489
0.717606 468.99 275.81723
0.717885 183.07 277.89628
0.718164 128.86 279.90395
0.718442 -185.11 290.12759
0.718721 -3.09 292.87595
0.718999 288.33 281.5741
0.719278 -6.29 292.68912
0.719556 -119.16 295.26206
0.719835 237.24 301.30988
0.720114 386.91 299.13982
0.720392 -483.98 300.96199
0.720671 -53 308.25384
0.720949 -116.62 318.96857
0.721228 504.91 309.57737
0.721506 -10.01 312.82799
0.721785 154.65 323.23338
0.722064 623.46 325.63087
0.722342 215.5 323.44291
0.722621 164.85 325.11993
0.722899 -370.72 341.65187
0.723178 34.8 340.04445
0.723456 442.16 346.4669
0.723735 -701.77 334.71221
0.724014 -328.84 351.96532
0.724292 472.32 355.91841
0.724571 657.34 363.89829
0.724849 -219.38 365.3284
0.725128 -482.37 370.04804
0.725406 -854.05 376.37754
0.725685 500.27 382.71682
0.725964 829 394.72988
0.726242 -107.97 395.78835
0.726521 449.52 398.14948
0.726799 335.36 411.04026
0.727078 374.82 424.03655
0.727356 -42.76 432.21489
0.727635 629.8 451.50414
0.727914 256.37 446.83565
0.728192 215.7 468.07759
0.728471 251.39 471.63586
0.728749 -74.44 482.58871
0.729028 40.61 505.92452
0.729306 396.32 517.85376
0.729585 513.79 533.23482
0.729864 1057.85 564.98462
0.730142 -371.21 582.32717
0.730421 -80.68 582.22804
0.730699 -51.47 618.9335
0.730978 -611.83 657.53915
0.731256 -309.43 658.80468
0.731535 -396.91 696.62211
0.731814 13.27 769.47459
0.732092 780.82 788.37742
0.732371 -563.98 877.1062
0.732649 213.57 950.66158
0.732928 -659.5 1081.5348
0.733206 -272 1324.5382

