# Q [1/Ã…] I(Q) [a.u.] dI(Q) [a.u.]
0.00223785 46124 25025.411
0.00251642 65716 19222.845
0.00279499 24622 13635.676
0.00307356 24122 10499.46
0.00335213 24273 7610.1712
0.0036307 24482 6352.9425
0.00390927 27339 4936.8429
0.00418784 25237.8 4183.7982
0.00446641 21879.8 3611.4985
0.00474498 18180.9 3123.8715
0.00502355 19489 2634.8122
0.00530212 17720.7 2336.0703
0.00558069 17372.9 2009.0689
0.00585926 14381.8 1840.9634
0.00613783 15632.8 1625.4457
0.0064164 15511 1382.8015
0.00669497 16920.8 1375.546
0.00697355 16181.73 1165.4301
0.00725212 17840.99 1117.8171
0.00753069 16369.35 997.99711
0.00780926 16250.62 924.84182
0.00808783 14609.56 898.72742
0.0083664 15976.17 815.52752
0.00864497 15747.17 773.38763
0.00892354 16374.21 726.1709
0.00920211 16381.8 686.61021
0.00948068 16003.14 680.01311
0.00975925 15830.68 620.35399
0.0100378 15201.67 607.46999
0.0103164 15201.38 575.53546
0.010595 15326.51 554.52711
0.0108735 15357.07 547.97599
0.0111521 15484.72 519.88688
0.0114307 16015.85 522.72573
0.0117092 15293.02 490.72778
0.0119878 15901.03 473.88061
0.0122664 15221.89 469.96129
0.012545 16332.45 445.81861
0.0128235 15572.95 448.72021
0.0131021 15521.62 435.79719
0.0133807 14996.41 421.40573
0.0136592 15212.75 417.75215
0.0139378 15599.72 403.14977
0.0142164 15174.09 400.00058
0.0144949 14763.03 391.63768
0.0147735 15144.52 386.63537
0.0150521 15268.08 378.81228
0.0153307 14932.31 371.06588
0.0156092 15041.86 366.41357
0.0158878 13964.38 361.39527
0.0161664 14909.21 352.93937
0.0164449 14164.1 353.52007
0.0167235 14725.78 340.44026
0.0170021 14689.82 340.38881
0.0172806 15107.93 337.4703
0.0175592 14564.4 333.65876
0.0178378 13881.57 326.29132
0.0181164 14389.74 320.5136
0.0183949 14699.49 319.6739
0.0186735 14735.12 316.04725
0.0189521 14872.61 321.12981
0.0192306 14506.02 324.86762
0.0195092 14636.16 324.68472
0.0197878 14847.34 322.89116
0.0200664 14272.25 320.29874
0.0203449 14397.82 320.00397
0.0206235 14510.17 319.21744
0.0209021 14639.72 316.66348
0.0211806 14027.48 315.2991
0.0214592 13445.15 314.41981
0.0217378 14237.97 313.2704
0.0220163 14230.86 312.4372
0.0222949 14045.27 309.33976
0.0225735 13832.33 310.24588
0.0228521 13967.55 308.10363
0.0231306 13792.29 303.91845
0.0234092 13947.96 305.49568
0.0236878 14149.2 304.70674
0.0239663 14356.07 302.76897
0.0242449 13808.25 302.23138
0.0245235 14103.12 297.58296
0.024802 13171.51 298.95771
0.0250806 13486.23 298.57862
0.0253592 13404.85 291.74239
0.0256378 13318.75 288.654
0.0259163 13282.17 279.2479
0.0261949 13607.72 280.09847
0.0264735 13209.62 275.11138
0.026752 13202.53 268.46698
0.0270306 13090.35 269.19597
0.0273092 13814.2 266.74673
0.0275877 13824.26 264.02196
0.0278663 13405.29 262.91678
0.0281449 13218.96 257.35396
0.0284235 13166.95 259.42702
0.028702 13223.25 254.69838
0.0289806 13579.39 252.17204
0.0292592 13359.95 251.403
0.0295377 13258.25 249.88594
0.0298163 12776.88 245.03227
0.0300949 13228.72 245.03817
0.0303735 12795.13 242.91002
0.030652 12688.26 243.48488
0.0309306 13173.67 240.24858
0.0312092 12799.67 237.14546
0.0314877 12282.53 237.50174
0.0317663 13244.87 234.23327
0.0320449 12878.95 232.81043
0.0323234 12726.89 232.54541
0.032602 12529.68 228.30052
0.0328806 12402.82 228.0771
0.0331592 12565.95 227.63912
0.0334377 12278.2 226.77289
0.0337163 12582.09 229.38669
0.0339949 12537.31 227.80194
0.0342734 12023.43 233.76741
0.034552 12271.85 231.67533
0.0348306 11813.79 229.13539
0.0351091 12262.39 231.77462
0.0353877 11681.43 231.41909
0.0356663 11889.35 234.58879
0.0359449 11649.19 229.50865
0.0362234 11906.22 228.07439
0.036502 11581.41 231.32569
0.0367806 11516.97 228.68881
0.0370591 11541.85 231.83529
0.0373377 11547.25 226.28342
0.0376163 11549.62 228.11872
0.0378949 11814.58 228.14525
0.0381734 11596.68 225.0638
0.038452 11483.09 228.98369
0.0387306 11168.08 224.62617
0.0390091 11412.93 227.56767
0.0392877 11398.64 226.47979
0.0395663 11454.41 222.38114
0.0398448 11102.83 224.25218
0.0401234 11124.19 222.17966
0.040402 10750.68 223.79521
0.0406806 11042.02 221.73339
0.0409591 10731.06 217.69022
0.0412377 10883.09 223.337
0.0415163 10611.31 219.16204
0.0417948 10533.04 219.58343
0.0420734 10740.41 219.34672
0.042352 10809.77 218.51894
0.0426305 10753.95 221.14458
0.0429091 10701.53 219.31027
0.0431877 10487.29 222.5145
0.0434663 10233.41 221.99434
0.0437448 9882.02 226.62883
0.0440234 10524.19 226.24049
0.044302 10786.79 225.55337
0.0445805 10119.15 226.85771
0.0448591 10259.04 226.76473
0.0451377 9968.58 229.66909
0.0454163 10048.92 229.02576
0.0456948 10010.26 227.69802
0.0459734 10050.63 227.83983
0.046252 9790.68 229.75911
0.0465305 9723.92 223.42886
0.0468091 9579.08 223.6524
0.0470877 9985.11 220.75137
0.0473662 9619.29 218.66411
0.0476448 9628.36 217.56037
0.0479234 9656.26 215.61129
0.048202 9474.67 215.55163
0.0484805 9293.26 214.76715
0.0487591 9351.31 211.71024
0.0490377 9244.48 212.2114
0.0493162 9399.07 209.22677
0.0495948 9048.42 208.58378
0.0498734 9190.87 207.99053
0.0501519 9273.35 207.38616
0.0504305 8939.7 209.4598
0.0507091 8964.11 205.83041
0.0509877 8732.34 207.94929
0.0512662 9128.59 206.70315
0.0515448 9034.2 205.15677
0.0518234 8821.37 205.77014
0.0521019 8450.73 204.21989
0.0523805 8761.55 204.79696
0.0526591 8828.86 205.73788
0.0529376 8381.38 204.03479
0.0532162 8598.45 204.14894
0.0534948 8308.33 203.56038
0.0537734 8692.65 202.4739
0.0540519 7918.2 200.36156
0.0543305 8575.04 202.16963
0.0546091 8237.6 199.89528
0.0548876 8263.5 197.06894
0.0551662 8375.53 198.73889
0.0554448 8024.66 198.11627
0.0557234 8105.44 194.62374
0.0560019 7917.99 196.95874
0.0562805 7917.61 192.42936
0.0565591 7941.61 193.93769
0.0568376 7774.78 192.67434
0.0571162 7820.45 191.73577
0.0573948 7641.27 192.84042
0.0576733 7735.09 190.97318
0.0579519 7467.32 192.43596
0.0582305 7624.88 191.26815
0.0585091 7468.72 188.99027
0.0587876 7317.67 189.70169
0.0590662 7585.07 190.44062
0.0593448 7554.22 189.94149
0.0596233 7397.49 188.10078
0.0599019 6968.15 187.45422
0.0601805 7339.78 189.42898
0.060459 7121.35 187.7689
0.0607376 7109.03 185.09991
0.0610162 6767.64 185.52145
0.0612948 6812.59 187.37157
0.0615733 6838.51 185.86375
0.0618519 6791.16 183.7205
0.0621305 6498.81 183.18247
0.062409 6955.35 183.5535
0.0626876 6996.03 185.73088
0.0629662 6496.38 182.49606
0.0632448 6470.68 182.90174
0.0635233 6546.98 181.30043
0.0638019 6938.96 181.36929
0.0640805 6447.11 182.70264
0.064359 6501.38 179.78505
0.0646376 6518.77 182.02618
0.0649162 6303.54 180.62547
0.0651947 6348.57 180.26686
0.0654733 6147.55 178.88506
0.0657519 6329.36 178.54594
0.0660305 6189.77 180.97901
0.066309 6320.92 177.97219
0.0665876 6014.35 177.21949
0.0668662 5833.68 175.47597
0.0671447 6075.93 175.77437
0.0674233 5570.15 177.38947
0.0677019 5944.26 174.5237
0.0679804 5836.69 176.57681
0.068259 5855.21 175.1306
0.0685376 5473.62 173.99111
0.0688162 5637.59 174.33951
0.0690947 5612.39 171.82861
0.0693733 5644.73 174.72268
0.0696519 5457.57 172.85445
0.0699304 5302.96 173.04455
0.070209 5142.29 171.5215
0.0704876 5381.3 170.52985
0.0707662 5259.93 172.50321
0.0710447 4967.22 171.43522
0.0713233 5170.23 170.46748
0.0716019 5233.12 171.48345
0.0718804 5055.63 167.89106
0.072159 5169.94 169.65499
0.0724376 5245.61 169.66775
0.0727161 5057.34 166.75083
0.0729947 5132.6 168.69724
0.0732733 4827.9 169.09403
0.0735519 4636.86 167.30274
0.0738304 4713.83 167.63771
0.074109 4767.44 166.05143
0.0743876 4482.56 166.57984
0.0746661 4588.07 166.12541
0.0749447 4857.34 164.5705
0.0752233 4923.22 165.86693
0.0755018 4687.06 165.01036
0.0757804 4736.42 164.37839
0.076059 4657.81 165.42212
0.0763376 4467.77 164.80131
0.0766161 4730.62 163.96441
0.0768947 4362.19 164.07639
0.0771733 4506.13 162.91454
0.0774518 4328.72 161.97494
0.0777304 4156.52 161.63421
0.078009 4240.12 166.05881
0.0782875 4211.74 165.37436
0.0785661 4078.44 166.842
0.0788447 4100.13 167.90965
0.0791233 3846.94 169.02329
0.0794018 3810.12 172.10444
0.0796804 3542.38 168.98325
0.079959 3803.83 170.76878
0.0802375 3845.89 169.8652
0.0805161 4006.48 172.77331
0.0807947 3796.85 172.96832
0.0810733 3842.94 171.20721
0.0813518 3622.22 174.11052
0.0816304 4070.82 173.83442
0.081909 3705.55 172.7543
0.0821875 3755.15 173.92582
0.0824661 3454.37 174.09561
0.0827447 3271.01 175.34237
0.0830232 3636.95 174.99655
0.0833018 3512.83 174.16323
0.0835804 3557.73 174.85357
0.083859 3494.88 175.971
0.0841375 3325.9 175.58216
0.0844161 3340.38 174.80321
0.0846947 3524.62 172.74261
0.0849732 3301.34 170.27495
0.0852518 3201.24 168.63429
0.0855304 3048.06 167.60523
0.0858089 3641.16 164.95723
0.0860875 3209.72 165.82355
0.0863661 3164.7 164.30841
0.0866447 3121.87 163.465
0.0869232 3097.87 163.48374
0.0872018 3048.75 162.30857
0.0874804 3077.12 163.007
0.0877589 3249.04 161.11541
0.0880375 3074.67 160.05874
0.0883161 3354.6 160.38479
0.0885947 2844.42 160.18613
0.0888732 3083.78 159.29836
0.0891518 2660.12 157.02352
0.0894304 2802.22 157.21163
0.0897089 2863.7 157.24477
0.0899875 2838.06 156.48186
0.0902661 2735.34 154.80043
0.0905446 2675.8 155.07706
0.0908232 2812.79 155.0238
0.0911018 2477.1 154.19076
0.0913804 2680.68 152.77609
0.0916589 2560.73 153.26938
0.0919375 2750.36 155.85087
0.0922161 2700.79 158.76075
0.0924946 2450.03 158.85679
0.0927732 2562.85 159.26025
0.0930518 2265.85 159.56943
0.0933303 2361.92 161.54364
0.0936089 2352.12 162.48447
0.0938875 2342.13 162.1963
0.0941661 2393.71 162.21646
0.0944446 2243.95 161.34787
0.0947232 2032.13 160.68189
0.0950018 2029.66 162.20065
0.0952803 2305.79 162.17369
0.0955589 2144.66 164.39929
0.0958375 1866.85 161.28789
0.0961161 2102.09 158.55911
0.0963946 2222.17 157.56812
0.0966732 2109.11 156.17412
0.0969518 2300.65 156.57797
0.0972303 2041.5 154.13688
0.0975089 1998.52 153.88701
0.0977875 1741.22 152.59491
0.098066 1976.41 153.53197
0.0983446 2307.38 153.48512
0.0986232 2204.48 151.50568
0.0989018 2266.48 153.31174
0.0991803 2135.64 151.57903
0.0994589 1756.82 149.56188
0.0997375 1859.3 149.42118
0.100016 1667.29 149.26584
0.100295 2123.99 148.9406
0.100573 1985.35 148.02603
0.100852 1663.34 147.58336
0.10113 1880.08 147.38411
0.101409 1733.21 146.51106
0.101687 1691.87 146.22526
0.101966 1569.03 146.22031
0.102245 1577.52 146.15934
0.102523 1641.85 145.34635
0.102802 1846.64 145.24289
0.10308 1379.34 144.87565
0.103359 1722.04 145.52884
0.103637 1573.8 144.58383
0.103916 1526.69 144.37063
0.104195 1721.65 143.7554
0.104473 1457.84 143.57948
0.104752 1871.97 143.4784
0.10503 1508.45 144.28577
0.105309 1608.65 143.77792
0.105587 1547.58 144.06246
0.105866 1655.21 141.49881
0.106145 1213.49 142.37477
0.106423 1380.09 141.96989
0.106702 1536.29 141.86757
0.10698 1270.34 142.66537
0.107259 1219.94 140.4892
0.107537 1342.77 142.26654
0.107816 1049.41 140.52493
0.108095 1289.81 141.08011
0.108373 1185.61 140.8946
0.108652 1227.2 140.64202
0.10893 1338.59 141.25055
0.109209 957.86 139.58934
0.109487 1039.9 138.70779
0.109766 1131.02 140.28983
0.110045 1380.11 139.02855
0.110323 1150.61 138.75297
0.110602 1407.25 138.95348
0.11088 1054.72 139.47214
0.111159 1151.86 139.37797
0.111437 1079.06 137.15462
0.111716 1089.97 138.35295
0.111995 978.51 137.32373
0.112273 1169.94 137.38038
0.112552 1036.27 137.74221
0.11283 1151.4 137.47577
0.113109 1031.95 137.71385
0.113387 892.36 137.06057
0.113666 1025.31 137.00267
0.113945 1076.41 136.53892
0.114223 1040.61 136.08084
0.114502 854.86 136.01243
0.11478 928.3 136.78366
0.115059 1203.79 135.55966
0.115337 815.29 135.55548
0.115616 747.26 135.86578
0.115895 835.37 135.66954
0.116173 766.37 135.27394
0.116452 817.66 134.53012
0.11673 645.29 134.91037
0.117009 1074.06 135.51957
0.117287 770.23 134.25857
0.117566 1079.3 134.35097
0.117845 959.25 134.18279
0.118123 988.13 133.93259
0.118402 869.64 134.14452
0.11868 923.53 132.82347
0.118959 904.72 132.75242
0.119237 954.65 132.87874
0.119516 724.48 132.65024
0.119795 801.39 133.22821
0.120073 760.84 131.73154
0.120352 825.49 132.66834
0.12063 824.15 132.30868
0.120909 927.69 131.94082
0.121187 985.9 131.28731
0.121466 617.75 130.90245
0.121745 697.42 132.08034
0.122023 881.79 130.20613
0.122302 728.09 129.62902
0.12258 691.17 129.83514
0.122859 856.12 129.52091
0.123137 749.64 130.39019
0.123416 915.92 128.7393
0.123695 623.04 128.88522
0.123973 900.18 129.56846
0.124252 782.17 127.90539
0.12453 657.82 129.13757
0.124809 689.04 127.87139
0.125087 696.02 129.154
0.125366 687.46 128.65251
0.125645 500.67 127.2948
0.125923 617.93 128.65363
0.126202 818.25 128.61782
0.12648 280.19 128.05689
0.126759 803.91 128.26048
0.127037 399.26 127.97446
0.127316 585.67 127.71021
0.127594 445.28 128.19015
0.127873 499.39 127.72195
0.128152 471.44 127.69583
0.12843 687.93 126.65175
0.128709 283.06 127.56392
0.128987 351.47 127.35488
0.129266 444.98 126.99899
0.129544 517.56 127.19637
0.129823 276.26 126.66607
0.130102 742.45 126.50423
0.13038 510.28 125.82394
0.130659 217.62 125.60772
0.130937 393.96 125.52766
0.131216 375.41 125.16548
0.131494 340.41 125.25102
0.131773 455.38 125.58134
0.132052 530.74 124.44509
0.13233 281.57 125.84388
0.132609 551.69 124.62644
0.132887 274.73 124.68354
0.133166 406.02 125.09015
0.133444 539.72 123.70821
0.133723 336.01 124.86776
0.134002 16.54 123.86203
0.13428 329.31 124.05846
0.134559 412.86 124.80918
0.134837 186.14 123.68804
0.135116 506.95 124.32446
0.135394 347.48 122.19138
0.135673 437.46 123.33152
0.135952 259.16 123.92349
0.13623 75.76 122.57196
0.136509 442.79 123.60036
0.136787 140.35 122.62784
0.137066 562.73 124.394
0.137344 420.43 127.1021
0.137623 413.5 126.2992
0.137902 408.94 128.22929
0.13818 273.73 128.41249
0.138459 492.26 128.58435
0.138737 316.61 129.71484
0.139016 222.16 128.39302
0.139294 380.41 130.38325
0.139573 183.42 129.89269
0.139852 95.18 130.0719
0.14013 354.32 131.86909
0.140409 412.51 131.16689
0.140687 117.76 131.47971
0.140966 196.93 132.23731
0.141244 446.39 131.47711
0.141523 283.41 132.70864
0.141802 217.47 132.3852
0.14208 211.01 133.31939
0.142359 213.53 132.31579
0.142637 315.69 133.69959
0.142916 219.13 133.81953
0.143194 255.31 133.99929
0.143473 175.52 134.27499
0.143752 265.61 130.8874
0.14403 295.07 130.93784
0.144309 441.09 128.62541
0.144587 10.16 127.58664
0.144866 134.36 126.9051
0.145144 326.99 125.91405
0.145423 109.61 126.54508
0.145702 198.67 125.69333
0.14598 112.01 125.67603
0.146259 136.16 124.95834
0.146537 332.3 125.35978
0.146816 244.05 124.32993
0.147094 439.89 123.5496
0.147373 190.77 123.47368
0.147652 -73 123.93583
0.14793 481.07 122.97518
0.148209 35.74 123.38333
0.148487 357.01 123.2918
0.148766 123.59 122.44049
0.149044 105.24 122.65079
0.149323 148 121.51454
0.149602 109.62 121.80359
0.14988 -63.21 121.78217
0.150159 56.93 121.25297
0.150437 212.45 122.03292
0.150716 272.83 121.92007
0.150994 176.47 120.99028
0.151273 98.87 121.19525
0.151552 287 121.45617
0.15183 124.69 120.65255
0.152109 119.51 121.37557
0.152387 83.24 119.79574
0.152666 -38.87 121.38655
0.152944 -102.71 120.25016
0.153223 218.54 120.31338
0.153502 271.24 120.26835
0.15378 233.09 119.64232
0.154059 202.57 120.02208
0.154337 46.56 118.77828
0.154616 122.44 118.55138
0.154894 160.15 118.98063
0.155173 131.44 118.40978
0.155452 -252.03 119.37291
0.15573 -84.98 118.29485
0.156009 126.95 119.24109
0.156287 -5.77 118.35672
0.156566 81.57 117.19778
0.156844 117.8 118.16386
0.157123 -16.81 118.14537
0.157402 92.87 117.46733
0.15768 -90.66 117.64748
0.157959 48.4 116.51645
0.158237 219.93 117.58465
0.158516 -137.3 117.29014
0.158794 -58.98 117.0579
0.159073 201.24 116.68316
0.159352 190.88 116.53864
0.15963 -105.48 116.30757
0.159909 207.64 116.7296
0.160187 250.06 115.85013
0.160466 72.73 116.36191
0.160744 143.34 116.53722
0.161023 -73.77 115.95687
0.161302 49.63 115.4654
0.16158 -50.32 114.98796
0.161859 111.63 115.30137
0.162137 69.88 115.35474
0.162416 186.63 114.94938
0.162694 98.67 114.97915
0.162973 -29.09 115.19105
0.163252 29.76 114.76796
0.16353 120.95 114.61475
0.163809 -78.07 113.76852
0.164087 337.72 114.86196
0.164366 189.33 114.45451
0.164644 93.72 113.64628
0.164923 -36.44 114.03267
0.165201 43.11 113.45253
0.16548 23.64 114.0009
0.165759 267.31 113.5426
0.166037 104.73 113.0993
0.166316 -63.75 113.37635
0.166594 95.59 112.92106
0.166873 116.94 113.21909
0.167151 91.06 112.57871
0.16743 350.19 112.56871
0.167709 -51.14 112.47902
0.167987 164.95 112.19317
0.168266 288.34 112.14517
0.168544 119.66 112.4045
0.168823 -76.38 112.20516
0.169101 420.81 112.19526
0.16938 -105.16 111.72722
0.169659 92.48 112.05896
0.169937 118.87 111.5457
0.170216 11.91 111.63325
0.170494 -90.13 111.59484
0.170773 175.42 111.14271
0.171051 -141.73 112.10727
0.17133 159.92 111.42764
0.171609 79.46 111.31921
0.171887 189.99 111.95435
0.172166 -109.78 111.90474
0.172444 187.8 111.40629
0.172723 -98.4 111.63149
0.173001 -47.84 111.15992
0.17328 -71.58 111.67414
0.173559 -73.47 111.47777
0.173837 172.6 110.81311
0.174116 13.79 110.74761
0.174394 145.88 110.76594
0.174673 -52.03 111.07292
0.174951 -190.02 110.38521
0.17523 -83.9 110.76989
0.175509 -125.04 110.97594
0.175787 137.79 110.86774
0.176066 80.28 110.2039
0.176344 133.49 110.54704
0.176623 55.87 109.84849
0.176901 150.24 110.07999
0.17718 20.2 110.05483
0.177459 -45.84 110.53017
0.177737 64.19 110.02594
0.178016 -128.33 109.54595
0.178294 24.32 109.92591
0.178573 146.59 109.15284
0.178851 -49.65 110.16452
0.17913 37.41 108.70119
0.179409 -155.3 109.61435
0.179687 82.82 109.48323
0.179966 83.73 109.204
0.180244 76.85 109.50987
0.180523 107.15 109.21943
0.180801 12.83 108.80745
0.18108 138.02 109.23851
0.181359 -21.73 109.00789
0.181637 -49.26 108.9937
0.181916 43.93 109.18791
0.182194 269.99 109.32471
0.182473 -69.69 110.15289
0.182751 -97.9 108.91711
0.18303 -12.93 109.91107
0.183309 -64.25 109.62251
0.183587 70.91 109.46127
0.183866 63.07 109.42737
0.184144 38.13 109.46379
0.184423 113.31 110.1494
0.184701 167.8 110.21362
0.18498 68.35 109.77244
0.185259 79.38 110.20677
0.185537 68.25 109.44286
0.185816 76.67 109.90173
0.186094 -72.79 109.85048
0.186373 84.85 109.8267
0.186651 222.05 109.82275
0.18693 171.71 109.14687
0.187209 100.79 109.22804
0.187487 -9.28 108.97652
0.187766 44.62 108.61154
0.188044 105.77 109.12407
0.188323 -74.2 108.9848
0.188601 78.54 108.31413
0.18888 1.37 108.92554
0.189159 19.01 107.45711
0.189437 54.83 108.00789
0.189716 57.06 107.9592
0.189994 137.78 107.49865
0.190273 27.89 107.8002
0.190551 162.02 107.07353
0.19083 -82.06 106.94221
0.191109 53.59 107.55188
0.191387 87.25 106.56781
0.191666 -195.46 107.93738
0.191944 227.48 106.50152
0.192223 50.29 106.75899
0.192501 -18.24 107.37976
0.19278 171.26 106.33654
0.193059 41.82 106.94292
0.193337 295.1 106.31095
0.193616 -50.36 106.65455
0.193894 -37.09 106.33774
0.194173 254.61 106.24585
0.194451 151.95 106.07022
0.19473 73.63 106.31257
0.195009 181.69 105.71565
0.195287 -109.83 106.50734
0.195566 -34.67 105.6049
0.195844 -16.04 106.43792
0.196123 120.07 106.90794
0.196401 142.24 108.54523
0.19668 5.66 109.5185
0.196959 13.11 108.75678
0.197237 -92.08 109.67266
0.197516 -62.55 110.12789
0.197794 77.64 110.50241
0.198073 -0.18 111.24729
0.198351 -189.75 110.91112
0.19863 126.28 111.55701
0.198909 -60.99 110.7271
0.199187 -142.87 111.16197
0.199466 35.96 112.10237
0.199744 106.87 111.46555
0.200023 147.84 112.87912
0.200301 189.28 112.97195
0.20058 -31.57 112.9742
0.200858 -186.73 113.85269
0.201137 205.64 113.06196
0.201416 113.26 113.39769
0.201694 12.38 114.24647
0.201973 144.4 114.47297
0.202251 -52.15 115.1981
0.20253 113.94 115.34463
0.202808 79.48 113.05881
0.203087 175.92 111.87812
0.203366 235.78 111.18737
0.203644 157.74 111.12238
0.203923 1.14 110.04639
0.204201 -7.64 110.07391
0.20448 -28.48 110.54923
0.204758 46.57 109.31436
0.205037 -5.18 108.89985
0.205316 327.12 109.06539
0.205594 23.52 108.91471
0.205873 114.08 108.77872
0.206151 196.37 108.01541
0.20643 -78.19 109.12818
0.206708 92.91 108.15444
0.206987 72.69 107.54579
0.207266 -34 107.59755
0.207544 195.11 107.49981
0.207823 -77.35 108.25668
0.208101 -46.29 107.15541
0.20838 -95.87 107.35758
0.208658 129.24 107.44658
0.208937 -57.41 106.36022
0.209216 -193.3 107.99004
0.209494 6.95 106.66805
0.209773 145.42 106.29285
0.210051 58.4 107.14694
0.21033 -136.43 106.06108
0.210608 68.86 107.21329
0.210887 -65.1 105.66585
0.211166 126.17 106.40988
0.211444 40.11 106.29002
0.211723 36.92 105.42548
0.212001 0.39 106.38772
0.21228 30.54 105.40614
0.212558 251.87 106.58177
0.212837 95.22 105.19476
0.213116 40.57 104.81948
0.213394 -94.66 105.28943
0.213673 64.02 105.35887
0.213951 233.74 105.77281
0.21423 49.38 105.53027
0.214508 -73.91 104.54909
0.214787 -106.9 104.55486
0.215066 2.92 105.14599
0.215344 160.59 104.81005
0.215623 -21.83 104.71295
0.215901 -95.99 104.7688
0.21618 -182.89 104.35575
0.216458 243.4 104.82762
0.216737 81.69 104.36755
0.217016 64.57 103.82009
0.217294 -31.17 104.11274
0.217573 183.57 103.5451
0.217851 117.07 103.63481
0.21813 226.88 103.35608
0.218408 -164.2 104.20711
0.218687 -16.05 103.3125
0.218966 20.64 103.30469
0.219244 -53.68 103.51547
0.219523 95.01 103.16099
0.219801 159.59 103.47793
0.22008 98.33 102.62277
0.220358 158.88 102.60383
0.220637 -32.35 103.28284
0.220916 62 102.42469
0.221194 123.24 102.75065
0.221473 43.64 102.18584
0.221751 -54.7 102.37901
0.22203 -52.4 102.36889
0.222308 92.47 102.12905
0.222587 207.98 102.64488
0.222866 12.39 102.3537
0.223144 251.75 101.77692
0.223423 5.12 102.45019
0.223701 -58.95 101.83671
0.22398 277.22 102.40289
0.224258 -96.4 102.50405
0.224537 75.6 102.0869
0.224816 12.04 101.48402
0.225094 -89.39 101.72797
0.225373 -51.19 101.90465
0.225651 78.13 102.07153
0.22593 56.58 101.67151
0.226208 124.1 102.01203
0.226487 109.57 101.48034
0.226766 -77.48 101.21125
0.227044 10.69 100.98189
0.227323 -63.85 101.22324
0.227601 -23.04 101.20083
0.22788 215.19 101.00691
0.228158 44.6 101.39385
0.228437 -54.33 100.55391
0.228716 -59.39 100.73788
0.228994 102.49 100.79592
0.229273 154.35 100.42734
0.229551 98.87 100.01181
0.22983 -22.16 100.22044
0.230108 -19.59 100.24196
0.230387 -52.99 100.66049
0.230666 255.76 100.66966
0.230944 38.12 100.3679
0.231223 23.63 100.80909
0.231501 41.93 100.68504
0.23178 11.21 100.96544
0.232058 81.36 101.42478
0.232337 41.88 101.19696
0.232616 -145.35 101.47693
0.232894 57.62 101.01685
0.233173 128.36 101.7081
0.233451 61.01 101.90233
0.23373 61.29 101.46903
0.234008 106.29 102.10743
0.234287 57.1 102.02131
0.234566 146.41 101.77841
0.234844 -165.75 102.30106
0.235123 71.9 101.44487
0.235401 -179.22 102.32727
0.23568 79.34 101.36711
0.235958 -69.68 101.73352
0.236237 37.91 101.46964
0.236515 -20.48 101.2581
0.236794 -25.13 101.6489
0.237073 -23.37 100.87865
0.237351 -27.85 101.44093
0.23763 12.51 100.80975
0.237908 161.49 100.82893
0.238187 -65.77 100.49754
0.238465 160.91 100.56135
0.238744 -12.54 100.54017
0.239023 -1.01 100.43006
0.239301 143.19 100.07051
0.23958 -128.79 100.28891
0.239858 -68.75 99.873933
0.240137 107.8 100.34562
0.240415 -23.08 99.785337
0.240694 -36.92 99.214275
0.240973 41.23 99.759706
0.241251 2.19 99.777509
0.24153 202.36 99.730021
0.241808 -55.23 99.677315
0.242087 28.48 99.590667
0.242365 35.55 99.56796
0.242644 23.36 98.835435
0.242923 133.79 98.95233
0.243201 44.68 99.234004
0.24348 -88.94 98.714472
0.243758 -186.44 97.994604
0.244037 130.12 98.062415
0.244315 -43.66 98.266556
0.244594 -19.65 97.675081
0.244873 73.18 97.828314
0.245151 -11.45 97.526274
0.24543 -100.77 98.365145
0.245708 -34.83 97.385016
0.245987 202.17 97.853042
0.246265 -96.03 97.515355
0.246544 -43.23 97.617841
0.246823 71.58 97.951243
0.247101 207.26 97.300044
0.24738 -82.04 97.664099
0.247658 46.81 97.510921
0.247937 53.5 97.495475
0.248215 2.91 98.217474
0.248494 -55.28 97.472271
0.248773 -1.51 97.064713
0.249051 -56.05 97.542802
0.24933 -139.2 97.614637
0.249608 49.82 97.542011
0.249887 -81.17 96.833964
0.250165 87.37 97.891312
0.250444 -39.14 97.151087
0.250723 46.53 97.381305
0.251001 133.88 97.012601
0.25128 -159.31 97.096081
0.251558 -42.58 97.16892
0.251837 120.32 96.70442
0.252115 196.01 96.910232
0.252394 162.25 97.081754
0.252673 37.75 96.753917
0.252951 9.54 96.566631
0.25323 -0.26 96.848151
0.253508 -119.78 96.496601
0.253787 -201.18 96.649366
0.254065 -71.65 96.013119
0.254344 250.4 96.66765
0.254623 25.23 96.342644
0.254901 133.42 96.859447
0.25518 75.84 97.696569
0.255458 -165.53 98.536235
0.255737 40.18 99.238936
0.256015 -90.41 99.916151
0.256294 169.59 100.10059
0.256573 127.14 100.48142
0.256851 -175.8 100.8925
0.25713 -72.36 101.36072
0.257408 -1.11 101.52042
0.257687 22.45 102.11069
0.257965 -94.42 102.17481
0.258244 -366.25 102.89758
0.258523 22.29 103.21775
0.258801 -155.73 102.51396
0.25908 105.88 103.40498
0.259358 88.55 102.92486
0.259637 25.46 104.26252
0.259915 46.57 103.3378
0.260194 -80.73 104.07955
0.260473 -123.76 104.07252
0.260751 -42.39 104.4057
0.26103 -183.08 104.78167
0.261308 181.57 105.11914
0.261587 81.44 104.66827
0.261865 -59.36 103.55081
0.262144 -0.65 103.04566
0.262423 104.6 102.07535
0.262701 -43.66 101.13768
0.26298 32.06 101.54239
0.263258 57.49 100.66236
0.263537 229.03 100.43212
0.263815 78.83 100.4951
0.264094 76.24 99.693086
0.264373 152.99 100.7294
0.264651 -59.84 99.04988
0.26493 33.17 99.055978
0.265208 -6.51 99.416592
0.265487 -137.67 98.920486
0.265765 -112.86 100.01619
0.266044 -32.49 98.500929
0.266323 -24.8 98.443635
0.266601 42.76 98.450806
0.26688 -168.25 98.570005
0.267158 -69.85 98.518868
0.267437 -65.12 97.849484
0.267715 18.07 98.723147
0.267994 3.07 97.821215
0.268273 -4.94 97.063456
0.268551 -127.46 98.18716
0.26883 152.02 96.81093
0.269108 63.99 97.498469
0.269387 15.32 97.100855
0.269665 -32.3 95.883917
0.269944 -68.06 96.773536
0.270223 128.27 96.475717
0.270501 0.18 96.409463
0.27078 -83.72 96.864091
0.271058 39.28 96.248897
0.271337 -14.31 95.932139
0.271615 125.48 95.923032
0.271894 173.34 95.987351
0.272172 26.1 95.807075
0.272451 -1.69 95.841909
0.27273 -62.26 95.607882
0.273008 47.46 96.050438
0.273287 -72.88 95.518551
0.273565 -33.46 96.066236
0.273844 91.78 95.53927
0.274122 -10.07 95.872002
0.274401 119.21 95.885251
0.27468 71.83 95.411921
0.274958 46.89 95.423804
0.275237 37.6 95.330024
0.275515 38.03 95.443299
0.275794 -104.07 95.369488
0.276072 41.01 95.239039
0.276351 -63.75 95.316223
0.27663 1.99 94.327189
0.276908 44.15 95.051898
0.277187 10.27 95.270598
0.277465 127.38 94.802214
0.277744 -129.74 95.194004
0.278022 90.64 94.353478
0.278301 82.04 94.937455
0.27858 -118.98 95.058471
0.278858 -36.33 94.654658
0.279137 175.83 95.079361
0.279415 -6.87 94.620495
0.279694 49.52 94.702874
0.279972 -19.97 94.637959
0.280251 26.53 94.655878
0.28053 -7.43 94.311082
0.280808 -53.47 94.491094
0.281087 -142.31 94.14089
0.281365 -26.52 94.408328
0.281644 12.77 94.548578
0.281922 -235.32 94.166792
0.282201 -124.74 94.569269
0.28248 102.31 93.779744
0.282758 -3.18 93.862014
0.283037 -70.08 93.876005
0.283315 2.51 94.272451
0.283594 102.58 93.924959
0.283872 -72.61 93.732934
0.284151 -61.57 94.119508
0.28443 103.69 94.165232
0.284708 56.24 93.650006
0.284987 -49.18 93.526274
0.285265 49.31 93.973706
0.285544 119.76 93.441184
0.285822 57.11 93.860532
0.286101 -47.17 93.627413
0.28638 -291.02 93.613079
0.286658 -75.55 93.201511
0.286937 13.95 93.673962
0.287215 -44.8 93.365875
0.287494 -40.19 93.339245
0.287772 -22.2 93.649188
0.288051 58.73 93.009803
0.28833 -9.27 93.205521
0.288608 -12.78 92.899732
0.288887 89.11 92.865782
0.289165 -147.23 93.010173
0.289444 -192.94 92.870391
0.289722 -80.49 92.848753
0.290001 33.86 92.995182
0.29028 -49.53 92.230576
0.290558 -105.59 93.247709
0.290837 -84.63 92.085156
0.291115 61.77 92.384748
0.291394 -130.42 92.594503
0.291672 -142.69 92.471916
0.291951 140.94 92.89261
0.29223 -63.6 92.100604
0.292508 -62.14 92.619262
0.292787 49.48 92.306817
0.293065 -150.46 92.447767
0.293344 30.52 92.785569
0.293622 54.65 91.696095
0.293901 -29.41 92.485229
0.29418 4.13 92.177394
0.294458 71.88 91.798578
0.294737 125.47 92.120091
0.295015 112.07 92.583764
0.295294 -35.15 91.903865
0.295572 -65.36 92.435176
0.295851 -64.77 91.658864
0.29613 19.92 92.118644
0.296408 -140.51 91.605979
0.296687 -103.53 91.796232
0.296965 -176.73 91.573225
0.297244 -65.62 91.442797
0.297522 -191.72 91.744992
0.297801 68.57 91.491272
0.29808 34.92 91.83168
0.298358 97.54 91.716271
0.298637 -110.73 91.836257
0.298915 43.8 91.797425
0.299194 -232.79 91.166763
0.299472 24.22 90.894534
0.299751 60.31 91.985183
0.30003 -152.56 91.72758
0.300308 86.46 91.244881
0.300587 137 91.24956
0.300865 -29.79 91.135701
0.301144 -51.08 91.607481
0.301422 -6.81 91.152155
0.301701 -77.83 91.10794
0.30198 139.58 91.522555
0.302258 -112.07 90.951972
0.302537 59.03 91.042365
0.302815 -93.6 90.226866
0.303094 -19.26 90.645587
0.303372 6.04 91.244907
0.303651 108.94 90.342982
0.30393 -42.52 90.613391
0.304208 82.48 90.416921
0.304487 -70.08 90.175365
0.304765 -30.49 90.603045
0.305044 46.08 89.567668
0.305322 114.6 90.526815
0.305601 47.54 90.235258
0.30588 -116.38 89.800417
0.306158 38.93 90.453857
0.306437 -1.81 89.963936
0.306715 -6.37 90.48051
0.306994 -88.37 90.112002
0.307272 -91 90.157761
0.307551 -25.35 90.18164
0.30783 -17.39 89.961778
0.308108 -92.5 90.385377
0.308387 63.88 90.23881
0.308665 -25.75 90.253206
0.308944 -42.35 90.172591
0.309222 19.59 90.101783
0.309501 -156.11 90.366722
0.309779 -104.13 90.347047
0.310058 11.17 90.103112
0.310337 90.27 90.087185
0.310615 144.7 89.780624
0.310894 78.61 90.463276
0.311172 66.51 89.927712
0.311451 89.5 90.198245
0.311729 -92.34 89.558488
0.312008 -148.99 89.86045
0.312287 -45.92 89.919214
0.312565 27.9 89.639311
0.312844 -17.82 90.201859
0.313122 -68.43 89.918794
0.313401 -42.26 89.888064
0.313679 113.06 89.63675
0.313958 -10.02 89.361591
0.314237 -151.25 90.257644
0.314515 -205.67 91.701017
0.314794 20.69 92.090125
0.315072 -47.95 92.47743
0.315351 -97.64 92.949933
0.315629 -42.46 93.296145
0.315908 70.38 93.519605
0.316187 -50.26 94.139366
0.316465 -127.21 93.928325
0.316744 -185.65 94.6413
0.317022 -151.38 94.681851
0.317301 -49.67 94.314304
0.317579 34.09 94.932491
0.317858 58.93 95.485902
0.318137 -100.59 95.846346
0.318415 35.65 95.588213
0.318694 -65.2 96.581869
0.318972 -72.9 96.28913
0.319251 15.59 96.530144
0.319529 58.01 97.739114
0.319808 -38.58 96.326093
0.320087 -212.1 97.908483
0.320365 -229.65 97.446958
0.320644 -93.84 97.31548
0.320922 -4.89 96.771855
0.321201 -61.1 95.098447
0.321479 -37.44 95.245237
0.321758 85.25 94.263323
0.322037 -51.66 93.746396
0.322315 101.09 94.380512
0.322594 -105.23 93.660753
0.322872 98.76 93.872538
0.323151 -80.72 93.269266
0.323429 126.17 93.054388
0.323708 14.78 93.222588
0.323987 -3.1 93.019436
0.324265 -12.93 92.815465
0.324544 -112.17 92.828873
0.324822 12.72 92.582803
0.325101 -78.56 92.296906
0.325379 40.21 92.05482
0.325658 -89.82 92.456987
0.325937 -124.87 92.698301
0.326215 12.34 91.903481
0.326494 -260.9 91.84587
0.326772 -118.16 91.701734
0.327051 -37.16 91.551012
0.327329 50.59 91.89117
0.327608 -97.94 90.966593
0.327887 30.83 91.364063
0.328165 -107.17 91.123961
0.328444 37.3 90.566111
0.328722 28.47 91.123
0.329001 11.09 90.145524
0.329279 -18.79 90.526969
0.329558 26.56 90.915291
0.329837 -224.34 90.143354
0.330115 -138.28 90.440602
0.330394 32.68 90.214161
0.330672 -153.13 90.290456
0.330951 -43.51 90.170138
0.331229 -204.06 89.659759
0.331508 -262.53 90.423127
0.331787 -104.68 89.818085
0.332065 -27.72 89.767096
0.332344 56.99 89.91221
0.332622 -104.77 89.336055
0.332901 -68.06 90.6984
0.333179 127.7 89.759216
0.333458 74.58 89.640725
0.333737 -118.84 90.035913
0.334015 38.82 89.636337
0.334294 3.86 90.088213
0.334572 -30 89.255595
0.334851 -147.49 89.319032
0.335129 118.22 90.121385
0.335408 -67.61 89.097156
0.335687 -74.97 89.842928
0.335965 -183.45 89.442222
0.336244 53.48 89.571448
0.336522 -90.9 89.843176
0.336801 -28.24 88.86854
0.337079 22.58 89.397619
0.337358 -229.68 89.13296
0.337637 -243.03 89.587739
0.337915 57.73 89.794271
0.338194 -100.03 88.93717
0.338472 103.78 89.014245
0.338751 62.88 88.942197
0.339029 57.53 88.877257
0.339308 31.4 88.887726
0.339587 -167.73 88.829314
0.339865 -53.09 89.1456
0.340144 -2.79 88.822409
0.340422 -172.86 88.48437
0.340701 25.92 88.628263
0.340979 -85.56 88.509194
0.341258 25.07 88.559248
0.341537 -158.1 88.193345
0.341815 -46.33 88.269969
0.342094 -10.05 88.529969
0.342372 -76.8 88.46827
0.342651 -213.19 88.162176
0.342929 -20.23 87.821153
0.343208 -16.79 87.672867
0.343487 -59.77 88.27623
0.343765 117.59 87.783282
0.344044 105.29 87.558006
0.344322 54.45 87.901739
0.344601 -1.89 87.602938
0.344879 -78.25 87.659509
0.345158 -204.58 87.301198
0.345436 47.25 87.219952
0.345715 -68.39 87.775324
0.345994 -182.46 87.697628
0.346272 -89.38 87.632579
0.346551 26.46 87.131753
0.346829 -157.51 86.93771
0.347108 -20.97 87.674107
0.347386 -78.4 86.902045
0.347665 -100.67 87.658738
0.347944 144.59 87.136797
0.348222 -52.46 87.157504
0.348501 111.39 87.361234
0.348779 -48.56 87.189134
0.349058 14.41 87.180983
0.349336 -57.34 87.543156
0.349615 150.08 86.90316
0.349894 -70.65 87.399294
0.350172 -103.86 86.91053
0.350451 -99.7 87.348629
0.350729 132.89 86.879325
0.351008 14.59 87.075024
0.351286 -38.89 86.951409
0.351565 21.15 86.391267
0.351844 44.43 87.613927
0.352122 0.29 87.230714
0.352401 66.92 86.915261
0.352679 -41.84 87.295312
0.352958 115.66 87.109125
0.353236 -68.06 86.867887
0.353515 55.36 86.880548
0.353794 104.78 87.113598
0.354072 -44.34 86.96586
0.354351 -35.8 86.8948
0.354629 -60.23 86.881313
0.354908 74.16 87.418917
0.355186 2.16 86.912526
0.355465 -55.8 87.017913
0.355744 -66.14 87.134592
0.356022 72.51 86.70248
0.356301 72.51 87.159644
0.356579 -6.38 87.010499
0.356858 -76.81 87.013492
0.357136 -12.51 87.078001
0.357415 134.16 86.828845
0.357694 17.22 87.355247
0.357972 -6.39 87.03338
0.358251 -80.62 87.070521
0.358529 -92.32 87.281562
0.358808 -124.12 86.836333
0.359086 45.32 86.969454
0.359365 22.64 86.187529
0.359644 3.73 86.952334
0.359922 -49.21 86.95011
0.360201 51.3 86.719134
0.360479 -62.96 86.963921
0.360758 61 86.502593
0.361036 21.91 86.698178
0.361315 -158.36 86.821672
0.361594 -34.97 86.863265
0.361872 85.69 87.036236
0.362151 -61.7 86.802197
0.362429 13.47 86.905721
0.362708 -97.87 86.841725
0.362986 -67.7 86.702642
0.363265 -61.36 86.754074
0.363544 -48.04 86.492887
0.363822 23.61 86.650351
0.364101 -23.07 86.756461
0.364379 -114.15 86.016368
0.364658 15.2 87.036437
0.364936 -91.58 86.190459
0.365215 -8.08 86.674517
0.365494 26.71 86.528013
0.365772 -47.08 86.995049
0.366051 -56.53 86.430193
0.366329 -104.84 86.274323
0.366608 16.39 86.759144
0.366886 -170.68 86.430582
0.367165 -75.52 86.490955
0.367444 -82.79 86.689712
0.367722 13.1 86.313517
0.368001 44.73 86.547773
0.368279 -44.5 86.625999
0.368558 88.39 86.453684
0.368836 -26.42 86.81118
0.369115 94.81 86.692036
0.369394 -49.5 86.622695
0.369672 84.75 86.37981
0.369951 -200.15 86.636215
0.370229 24.65 86.715169
0.370508 -111.82 86.572323
0.370786 58.15 86.709278
0.371065 -40.64 86.569271
0.371344 -70.34 86.5556
0.371622 3.42 86.719957
0.371901 79.99 86.45423
0.372179 -212.34 86.345469
0.372458 14.36 86.940585
0.372736 -65.69 86.37324
0.373015 50.66 86.734431
0.373294 -88.12 87.631651
0.373572 5.85 88.957184
0.373851 -80.61 89.305686
0.374129 26.98 89.887874
0.374408 138.17 90.11264
0.374686 -4.04 90.764479
0.374965 -20.34 90.789274
0.375244 -2.66 91.683763
0.375522 19.76 90.958844
0.375801 -100.51 91.085534
0.376079 -21.99 92.039644
0.376358 -105.89 91.581007
0.376636 -36.76 92.842803
0.376915 -26.66 92.256686
0.377194 -52.41 92.78589
0.377472 -73.38 92.976387
0.377751 -23.6 93.082873
0.378029 -15.49 94.27026
0.378308 -35.21 93.034297
0.378586 -119.87 94.223017
0.378865 24.48 94.468148
0.379144 -39.47 93.991497
0.379422 36.02 94.934623
0.379701 -216.71 94.388432
0.379979 82.16 93.919368
0.380258 -44.55 92.756018
0.380536 70.77 92.115966
0.380815 18.25 92.089952
0.381093 23.95 91.687124
0.381372 -7.02 91.586602
0.381651 9.11 90.831705
0.381929 -223.62 90.163901
0.382208 20.4 90.517259
0.382486 102.6 90.803333
0.382765 -47.5 90.460906
0.383043 3.12 90.611504
0.383322 -82.6 90.66683
0.383601 -28.71 90.187683
0.383879 32.6 89.861161
0.384158 -61.15 90.172471
0.384436 -36.71 89.949525
0.384715 -15.39 90.163178
0.384993 -63.19 89.252252
0.385272 33.02 89.87146
0.385551 81.86 89.280246
0.385829 -35.58 89.094946
0.386108 -110.07 89.862832
0.386386 -41.11 88.917972
0.386665 20.61 89.557149
0.386943 -49.44 88.615539
0.387222 -79.43 89.574615
0.387501 37.46 89.102183
0.387779 -26.59 88.674569
0.388058 130.37 89.544658
0.388336 44.26 88.739893
0.388615 -91.87 88.402624
0.388893 -41.9 88.960108
0.389172 -49.91 88.507112
0.389451 -44.63 89.073863
0.389729 14.24 88.147615
0.390008 23.76 88.858627
0.390286 -6.41 88.484272
0.390565 144.83 87.831138
0.390843 -28.9 88.472879
0.391122 -41.3 87.877827
0.391401 47.41 88.431495
0.391679 43.18 88.183452
0.391958 -87.88 87.517764
0.392236 -32.1 88.4031
0.392515 69.85 87.771863
0.392793 12.83 88.185071
0.393072 44.4 88.287298
0.393351 24.03 87.594467
0.393629 -54.98 88.243647
0.393908 0.68 87.665788
0.394186 -23.54 88.155505
0.394465 -72.46 87.753563
0.394743 -17.96 87.748173
0.395022 79.74 87.818942
0.395301 61.84 88.00057
0.395579 -137.92 88.455762
0.395858 -117.23 87.751213
0.396136 -147.52 88.396167
0.396415 61.19 88.368863
0.396693 184.55 87.932678
0.396972 -128.03 88.491945
0.397251 -65.75 88.338403
0.397529 55.87 88.328721
0.397808 -78.52 88.041416
0.398086 75.76 88.413696
0.398365 -47.26 88.746603
0.398643 56.73 88.404273
0.398922 -97.38 88.805496
0.399201 -71.29 88.620987
0.399479 14.67 88.267465
0.399758 -59.91 88.530261
0.400036 -126.26 88.46606
0.400315 70.31 88.438628
0.400593 43.83 88.446612
0.400872 72.17 88.409944
0.401151 10.35 88.215558
0.401429 149 88.450897
0.401708 4.36 88.463911
0.401986 -234.97 88.700078
0.402265 -183.99 88.409398
0.402543 -31.05 88.478114
0.402822 -67.95 88.747304
0.403101 212.13 88.303713
0.403379 88.24 88.420572
0.403658 -63.67 88.823634
0.403936 -3.27 88.12762
0.404215 -80.04 89.00303
0.404493 -26.66 88.753299
0.404772 -52.67 88.221091
0.405051 22.96 88.946452
0.405329 102.32 88.612588
0.405608 -17.29 89.211391
0.405886 98.01 88.399252
0.406165 55.2 88.742245
0.406443 -42.85 88.313138
0.406722 14.29 88.525741
0.407001 47.49 88.519518
0.407279 -50.17 88.664962
0.407558 23.69 88.844964
0.407836 -100.66 88.580105
0.408115 39.59 88.517848
0.408393 38.84 88.88526
0.408672 -144.54 88.152166
0.408951 -41.91 88.886627
0.409229 56.92 88.614185
0.409508 18.1 88.580424
0.409786 83.84 88.682761
0.410065 57.25 88.212883
0.410343 -95.69 88.687349
0.410622 151.21 88.391614
0.410901 -114.86 88.38763
0.411179 2.35 88.709718
0.411458 32.95 88.657941
0.411736 1.66 88.498104
0.412015 47.99 88.695795
0.412293 -127.57 88.454541
0.412572 -55.06 88.43695
0.412851 113.87 88.151122
0.413129 -116.4 88.140374
0.413408 84.99 88.262284
0.413686 8.54 88.881677
0.413965 -117.79 88.040856
0.414243 -87.42 88.749567
0.414522 56.13 88.199819
0.414801 -47.88 88.005206
0.415079 39.18 88.052899
0.415358 28.25 88.544783
0.415636 -120.41 88.705169
0.415915 -99.5 88.237036
0.416193 -1.27 88.419484
0.416472 -145.43 88.140003
0.416751 -37.6 87.795809
0.417029 73.96 88.756272
0.417308 -123.03 87.643481
0.417586 -29.67 87.984767
0.417865 -130.96 88.111003
0.418143 -21.84 87.46082
0.418422 -31.81 88.216778
0.4187 -85.66 87.803318
0.418979 82.06 88.139341
0.419258 -128.08 87.979302
0.419536 -164.45 87.524222
0.419815 -3.56 88.178241
0.420093 -90.18 87.765384
0.420372 208.87 88.131696
0.42065 158.03 88.260754
0.420929 -60.68 87.916817
0.421208 -68.75 88.207091
0.421486 -66.41 88.02586
0.421765 73.06 88.277065
0.422043 153.99 88.128815
0.422322 -12.02 88.64032
0.4226 21.11 88.625839
0.422879 -223.33 88.034626
0.423158 16.7 88.572082
0.423436 -26.41 88.280317
0.423715 6.55 88.42815
0.423993 -291.55 88.362334
0.424272 1.27 88.363989
0.42455 51.05 88.470428
0.424829 -72.93 88.601846
0.425108 77.76 88.536114
0.425386 5.01 88.648258
0.425665 -64.03 88.341979
0.425943 -73.23 88.226521
0.426222 -14.06 88.714907
0.4265 42.18 88.28965
0.426779 -17.67 89.055574
0.427058 -80.03 88.603212
0.427336 -124.08 88.379473
0.427615 -68.14 88.829225
0.427893 56.61 88.481525
0.428172 -12.49 88.290344
0.42845 15.99 88.881566
0.428729 -5.79 88.159579
0.429008 -47.28 88.641459
0.429286 43.19 88.451783
0.429565 -72.24 88.666264
0.429843 -77.83 88.644438
0.430122 -176.83 88.747716
0.4304 -165.74 88.743697
0.430679 -22.48 88.512247
0.430958 20.9 88.905592
0.431236 59.07 88.655457
0.431515 -158.49 88.462788
0.431793 3.08 89.028694
0.432072 90.6 88.58381
0.43235 -118.31 90.34852
0.432629 -8.75 90.962168
0.432908 28.18 91.515303
0.433186 -57.47 92.890953
0.433465 -24.32 92.792479
0.433743 55.99 94.147833
0.434022 61.32 93.754718
0.4343 64.19 94.227677
0.434579 100.4 95.177281
0.434858 177.94 94.589043
0.435136 36.27 95.808656
0.435415 -22.75 95.838258
0.435693 19.78 95.854185
0.435972 -148.52 97.276575
0.43625 36.35 96.289674
0.436529 -109.7 97.413799
0.436808 46.81 97.604095
0.437086 -15.08 97.269114
0.437365 -41.8 98.889788
0.437643 -30.11 97.76654
0.437922 -160.75 99.381863
0.4382 -64.5 99.009224
0.438479 -20.7 99.476394
0.438758 138.83 99.829383
0.439036 33.6 97.621783
0.439315 129.3 97.097275
0.439593 -105.35 96.561816
0.439872 111.4 96.225734
0.44015 -66.12 95.588804
0.440429 -50.51 94.802776
0.440708 -34.04 94.521414
0.440986 -209.4 94.46909
0.441265 8.89 94.487744
0.441543 70.31 94.527355
0.441822 75.84 94.552583
0.4421 118.95 94.0009
0.442379 -31.44 94.04705
0.442658 -247.64 93.454707
0.442936 -127.74 93.808441
0.443215 -53.1 93.494649
0.443493 -42.16 93.136693
0.443772 144.1 93.428341
0.44405 126.63 93.317164
0.444329 -9.19 93.351868
0.444608 11.19 93.273532
0.444886 -0.55 93.279979
0.445165 46.84 92.949937
0.445443 69.1 93.208535
0.445722 -67.68 92.91888
0.446 0.54 93.375494
0.446279 8.99 93.128547
0.446558 196.1 92.871144
0.446836 -53.51 93.142212
0.447115 -17.31 92.509392
0.447393 -19.52 92.852701
0.447672 19.9 92.585594
0.44795 1.3 92.282964
0.448229 -97.93 92.913916
0.448508 27.98 92.023645
0.448786 149.15 92.283719
0.449065 -181.64 92.28074
0.449343 81.16 91.484267
0.449622 -93.93 92.286993
0.4499 20.15 91.605788
0.450179 88.74 91.94981
0.450458 56 91.651688
0.450736 9.86 91.676946
0.451015 -89.83 91.469601
0.451293 -0.05 91.770323
0.451572 35.36 91.532232
0.45185 -40.34 91.586699
0.452129 69.6 91.363434
0.452408 -71.11 91.470169
0.452686 89.6 91.602595
0.452965 24.19 90.955312
0.453243 -110.06 91.707729
0.453522 67.28 91.401563
0.4538 -30.05 91.582576
0.454079 -26.41 91.48284
0.454357 141.16 90.979734
0.454636 129.39 91.167665
0.454915 -84.28 91.973279
0.455193 30.27 91.189134
0.455472 13.07 91.684327
0.45575 -59.28 90.951107
0.456029 132.06 91.781704
0.456307 -60.9 91.70618
0.456586 -29.92 91.060101
0.456865 99.8 91.501498
0.457143 -90.41 90.853893
0.457422 -157.82 91.655721
0.4577 15.76 91.343988
0.457979 -37.79 91.491398
0.458257 177.71 91.599576
0.458536 -18.82 91.047485
0.458815 -25.43 91.411118
0.459093 -5.18 90.863942
0.459372 77.09 91.273765
0.45965 -36.35 91.167679
0.459929 -203.36 90.711444
0.460207 257.04 91.907014
0.460486 -124.72 91.069533
0.460765 -91.07 91.427999
0.461043 -76.91 91.32228
0.461322 6.17 91.1101
0.4616 113.88 91.700803
0.461879 138.59 90.921771
0.462157 -77.13 91.673784
0.462436 -48.44 90.916505
0.462715 94.69 91.011614
0.462993 21.71 91.286003
0.463272 56.44 90.638709
0.46355 17.34 91.304553
0.463829 -67.29 91.290862
0.464107 31.9 91.195794
0.464386 65.16 91.575324
0.464665 9.41 90.782268
0.464943 -31.19 91.663007
0.465222 0.42 91.119517
0.4655 -17.53 91.492766
0.465779 77.57 91.191906
0.466057 -72.61 90.936268
0.466336 53.07 91.435667
0.466615 -157.43 90.635484
0.466893 79.08 91.714307
0.467172 23.59 91.290571
0.46745 -61.55 90.685601
0.467729 -10.71 91.54497
0.468007 37.19 91.000132
0.468286 47.9 91.214834
0.468565 42.04 91.322641
0.468843 -72.67 90.839933
0.469122 -29.59 91.11
0.4694 -33.11 90.902777
0.469679 -12.39 91.376193
0.469957 15.46 90.617142
0.470236 -47.7 91.032284
0.470515 -28.28 90.934129
0.470793 85.85 90.949719
0.471072 -52.25 91.100268
0.47135 -19.34 90.724554
0.471629 83.89 90.862168
0.471907 -8.13 90.406535
0.472186 13.12 91.28278
0.472465 58.41 91.149877
0.472743 -95.62 91.019994
0.473022 94.95 90.773516
0.4733 76.58 90.637953
0.473579 -23.37 91.084237
0.473857 -28.89 91.172905
0.474136 -41.47 91.218318
0.474415 4.52 91.551847
0.474693 -30.93 90.281391
0.474972 67.32 91.406217
0.47525 27.81 90.895894
0.475529 62.71 91.134399
0.475807 122.32 91.450841
0.476086 0.75 90.965978
0.476365 -39.78 91.602459
0.476643 -23.86 91.020668
0.476922 -125.55 91.215204
0.4772 -48.65 91.894912
0.477479 -37.32 91.226336
0.477757 -96.72 91.564551
0.478036 88.23 90.902076
0.478315 -144.3 91.801594
0.478593 27.11 91.272749
0.478872 42.79 91.80786
0.47915 -52.63 91.840252
0.479429 105.14 90.879776
0.479707 135.53 92.218596
0.479986 50.31 90.996004
0.480265 -82.7 91.469045
0.480543 24.8 91.40128
0.480822 -70.08 91.089701
0.4811 4.55 91.878311
0.481379 -113.4 91.135694
0.481657 32.34 91.524555
0.481936 91.33 91.461216
0.482215 -82.87 91.723077
0.482493 37.28 91.411803
0.482772 21.22 91.176263
0.48305 86.69 91.571791
0.483329 -78.52 91.221732
0.483607 -68.99 91.007379
0.483886 167.51 91.621016
0.484165 77.45 90.748267
0.484443 -2.49 91.314358
0.484722 -64.59 90.668743
0.485 -128.98 91.210046
0.485279 49.02 90.977725
0.485557 5.82 90.868029
0.485836 70.09 91.767431
0.486115 107.86 90.872123
0.486393 -146.89 90.971164
0.486672 97.98 90.895927
0.48695 0.24 90.618171
0.487229 -153.28 90.972792
0.487507 27.27 90.63051
0.487786 139.29 91.237341
0.488065 6.63 90.749823
0.488343 5.48 90.871445
0.488622 80.04 91.042545
0.4889 -96.4 90.608937
0.489179 119.33 90.997125
0.489457 83.94 90.585351
0.489736 151.36 91.456007
0.490014 37.81 90.741426
0.490293 -129.61 91.163796
0.490572 63.79 90.846769
0.49085 158.93 90.505096
0.491129 -100.79 90.925838
0.491407 -5.16 91.395424
0.491686 -39.76 93.624476
0.491964 152.38 94.458802
0.492243 -18.96 93.916014
0.492522 -102.6 95.635583
0.4928 55.32 95.48921
0.493079 145.33 96.388513
0.493357 -132.33 96.722556
0.493636 -11.73 96.639634
0.493914 14.19 97.780918
0.494193 -36.15 96.898025
0.494472 38.72 98.105236
0.49475 43.73 98.368087
0.495029 -42.08 98.146141
0.495307 56.87 100.10342
0.495586 -22.55 98.920212
0.495864 -42.83 100.01208
0.496143 236.92 100.26344
0.496422 -53.09 101.08119
0.4967 -4.44 100.84856
0.496979 56.6 101.40238
0.497257 100.61 101.77777
0.497536 -60.39 101.99859
0.497814 -22.26 102.52622
0.498093 -66.13 100.98951
0.498372 -109.22 99.145395
0.49865 115.34 99.299792
0.498929 -132.38 97.815605
0.499207 -69.67 97.788694
0.499486 -165.02 97.135939
0.499764 166.64 97.19107
0.500043 -67.82 97.614546
0.500322 139.08 96.781855
0.5006 -113.46 96.345085
0.500879 123.7 96.570252
0.501157 41.04 96.414723
0.501436 180.21 96.265
0.501714 -101.4 96.284539
0.501993 150.65 96.164031
0.502272 -72.59 95.755859
0.50255 36.77 96.04007
0.502829 -2.24 95.137924
0.503107 6.78 95.97161
0.503386 -7.76 95.656599
0.503664 -109.9 94.526679
0.503943 -127.98 95.664117
0.504222 42.92 94.680435
0.5045 55.64 95.658188
0.504779 60.23 95.02128
0.505057 57.44 94.862093
0.505336 -95.96 95.119448
0.505614 -142.5 94.243822
0.505893 4.4 94.931456
0.506172 -77.5 94.64894
0.50645 62.01 94.318657
0.506729 39.71 95.433801
0.507007 -93.05 94.339164
0.507286 -150.14 95.230573
0.507564 74.37 94.513967
0.507843 -30.28 95.424904
0.508122 132.83 95.433179
0.5084 166.7 94.58979
0.508679 117.03 95.10819
0.508957 146.62 94.363994
0.509236 1.05 95.344512
0.509514 93.39 95.030722
0.509793 9.7 94.283418
0.510072 -154.56 94.49849
0.51035 68.29 94.291082
0.510629 -40.9 95.08123
0.510907 54.26 94.165075
0.511186 38.55 94.077047
0.511464 -114.08 94.866376
0.511743 -47.37 94.208906
0.512022 70.41 94.771705
0.5123 -81.02 93.792379
0.512579 -26.85 94.378718
0.512857 -67.74 94.459522
0.513136 -35.33 93.92059
0.513414 -30.05 94.01977
0.513693 270.58 94.029532
0.513972 106.91 94.666361
0.51425 72.03 93.473621
0.514529 -23.3 94.191061
0.514807 17.15 94.376863
0.515086 -54.08 94.595343
0.515364 -93.17 93.871011
0.515643 -107.32 93.829039
0.515922 -32.25 94.323157
0.5162 108.81 93.952562
0.516479 -77.57 94.061157
0.516757 12.95 93.978434
0.517036 66.71 94.326369
0.517314 89.74 94.023224
0.517593 31.28 94.160204
0.517872 -57.49 93.976891
0.51815 177.83 94.932689
0.518429 -31.95 93.505892
0.518707 69.55 94.362362
0.518986 31.42 93.629805
0.519264 40.39 94.29702
0.519543 -85.48 94.214586
0.519822 86.99 94.234189
0.5201 -10.56 93.8701
0.520379 16.49 93.280926
0.520657 -47.83 93.922755
0.520936 31.5 94.165551
0.521214 -98.7 94.011247
0.521493 -162.91 93.548517
0.521772 31.16 93.905361
0.52205 -28.13 94.236081
0.522329 45.76 93.980478
0.522607 66.93 93.766507
0.522886 93.83 94.223741
0.523164 36 93.597958
0.523443 -58.54 94.063863
0.523722 -239.47 93.341318
0.524 133.08 93.674849
0.524279 -128.57 93.329999
0.524557 -0.47 93.347609
0.524836 -63.26 93.248081
0.525114 64.34 93.220377
0.525393 13.58 93.350478
0.525671 167.5 93.513351
0.52595 -104.97 93.094153
0.526229 -70.19 93.170363
0.526507 142.59 92.823293
0.526786 87.66 92.986074
0.527064 77.09 93.269339
0.527343 -152.89 93.055318
0.527621 183.78 92.83086
0.5279 -65.97 93.36194
0.528179 -159.99 92.734124
0.528457 31.01 92.886376
0.528736 48.53 92.93652
0.529014 -52.61 92.671355
0.529293 -46.69 93.510873
0.529571 81.53 93.103154
0.52985 -28.76 93.14302
0.530129 -111.21 92.870774
0.530407 6.61 92.863056
0.530686 6.25 93.323778
0.530964 -7.98 93.141442
0.531243 93.15 93.258427
0.531521 -78.13 93.600577
0.5318 34.69 92.932868
0.532079 104.84 93.203192
0.532357 26.17 92.765806
0.532636 9.81 92.778083
0.532914 -23.87 93.579033
0.533193 91.19 93.413521
0.533471 27.88 92.937198
0.53375 150.84 93.133295
0.534029 138.92 93.472261
0.534307 -154.35 93.590422
0.534586 88.9 92.879786
0.534864 168.7 93.316835
0.535143 -38.27 93.137961
0.535421 108.6 93.24417
0.5357 -11.97 93.709074
0.535979 -87.35 92.779983
0.536257 6.41 93.112438
0.536536 -16.1 93.576731
0.536814 -37.99 92.659151
0.537093 -72.18 93.209064
0.537371 41.54 92.886992
0.53765 32.75 93.851744
0.537929 -46.66 92.941578
0.538207 -228.35 92.721034
0.538486 51.73 93.128555
0.538764 42 92.964334
0.539043 52.9 92.590084
0.539321 -259.89 92.789797
0.5396 -82.52 92.572707
0.539879 136.22 93.038702
0.540157 -259.48 92.55244
0.540436 32.07 92.748266
0.540714 -133.31 92.778297
0.540993 11.83 92.4051
0.541271 -133.28 92.659234
0.54155 -56.98 92.161387
0.541829 -95.51 92.644966
0.542107 -24.54 92.351362
0.542386 58.82 92.404453
0.542664 13.94 92.127493
0.542943 -101.03 92.593971
0.543221 -2.71 92.404878
0.5435 101.12 92.306214
0.543779 25.23 92.255504
0.544057 -104.96 92.175229
0.544336 -16.47 92.14088
0.544614 -30.81 92.381566
0.544893 49.96 92.268212
0.545171 -2.67 91.778022
0.54545 28.67 92.308515
0.545729 -119.82 92.236689
0.546007 41.2 92.587462
0.546286 4.59 92.301055
0.546564 -161.65 92.063201
0.546843 -135.74 92.118065
0.547121 96.46 91.999576
0.5474 -30.44 92.219722
0.547679 239.06 92.68091
0.547957 -24.43 92.040637
0.548236 -35.98 92.276156
0.548514 -77.05 92.459054
0.548793 2.39 92.231045
0.549071 257.05 92.659949
0.54935 55.02 92.712653
0.549629 -96.34 92.495754
0.549907 -37.83 92.509327
0.550186 -23.18 92.620881
0.550464 86.16 94.102609
0.550743 20.43 95.525207
0.551021 52.2 96.661651
0.5513 98.61 97.445025
0.551579 -30.72 98.210896
0.551857 24.3 98.9717
0.552136 -9.41 98.656931
0.552414 -20.99 99.570453
0.552693 25.75 99.942586
0.552971 -73.22 100.84991
0.55325 -48.48 100.9812
0.553529 -40.57 101.40713
0.553807 12.06 101.96761
0.554086 68.18 102.17064
0.554364 6.37 103.2469
0.554643 91.93 103.99219
0.554921 0.93 103.35104
0.5552 183.44 104.3197
0.555479 32.1 105.02309
0.555757 43.23 104.9729
0.556036 -2.49 105.63584
0.556314 -0.06 105.59701
0.556593 -90.05 106.75842
0.556871 -187.18 106.22843
0.55715 18.94 104.854
0.557429 131.73 103.51558
0.557707 -21.48 102.61459
0.557986 146.6 101.60072
0.558264 -40.18 101.46094
0.558543 54.15 100.26414
0.558821 85.63 100.60057
0.5591 -181.16 100.42235
0.559379 -153.67 99.951519
0.559657 -39.73 99.359124
0.559936 -27.09 99.37536
0.560214 113.07 99.4527
0.560493 159.13 99.245944
0.560771 103.7 98.647967
0.56105 -94.89 99.156559
0.561329 62.09 99.145294
0.561607 -130.37 98.402823
0.561886 50.81 98.499443
0.562164 -10.92 97.989952
0.562443 13.09 98.583901
0.562721 52.28 98.296069
0.563 62.92 98.417535
0.563278 7.5 98.183832
0.563557 8.9 98.098065
0.563836 66.31 98.172393
0.564114 -11.47 97.663178
0.564393 0.04 97.52592
0.564671 80.48 97.774686
0.56495 -124.96 97.627547
0.565228 -66.83 97.889857
0.565507 -113.66 97.683483
0.565786 -78.67 97.786618
0.566064 23.39 97.841967
0.566343 66.8 97.596768
0.566621 145.01 97.110258
0.5669 50.8 97.336838
0.567178 -36.05 97.287814
0.567457 50.4 97.461478
0.567736 150.62 96.780527
0.568014 -37.43 97.306767
0.568293 7.49 97.54381
0.568571 187.81 96.787555
0.56885 12.73 97.187144
0.569128 -73.27 96.627135
0.569407 -74.49 96.531194
0.569686 88.96 96.438075
0.569964 -137.78 96.419274
0.570243 12.6 96.618741
0.570521 84.34 96.41964
0.5708 -22.52 96.731481
0.571078 83.3 95.912218
0.571357 -56.18 95.444204
0.571636 -59.17 96.734376
0.571914 -14.94 96.798979
0.572193 74.54 95.872482
0.572471 114.61 96.059745
0.57275 87.08 96.034571
0.573028 56.42 95.986954
0.573307 56.78 96.055403
0.573586 -91.73 96.136205
0.573864 -31.13 95.92167
0.574143 43.73 96.317747
0.574421 25.89 95.594127
0.5747 -25.04 95.962858
0.574978 -13.8 95.433989
0.575257 -47.09 96.486679
0.575536 190.65 95.77419
0.575814 -87.04 95.451756
0.576093 61.58 95.915167
0.576371 179.53 95.846041
0.57665 11 96.05277
0.576928 13.9 95.648345
0.577207 69.58 95.783614
0.577486 -5.63 95.86504
0.577764 -84.81 95.493399
0.578043 75.72 95.80484
0.578321 175.93 95.491929
0.5786 51.32 95.598356
0.578878 43.88 96.106745
0.579157 227.73 95.613175
0.579436 150.9 96.070082
0.579714 -43.14 95.25302
0.579993 37.49 95.488887
0.580271 -122.6 96.024948
0.58055 177.33 95.086675
0.580828 86.6 95.378901
0.581107 105.34 95.23168
0.581386 -14.58 95.352111
0.581664 48.78 94.886867
0.581943 164.6 94.807216
0.582221 146.06 95.620744
0.5825 65.13 95.073361
0.582778 -137.91 95.344563
0.583057 202.09 95.540496
0.583336 89.93 95.105079
0.583614 -87.56 95.265306
0.583893 -43.16 95.684725
0.584171 -47.31 95.18364
0.58445 32.78 95.091056
0.584728 -17.42 95.096043
0.585007 -71.43 95.322812
0.585286 -168.41 95.363498
0.585564 69.78 95.119986
0.585843 -93.8 95.618267
0.586121 160.98 94.99463
0.5864 83.3 95.205786
0.586678 39.91 95.060839
0.586957 6.57 95.4714
0.587236 -147.49 95.148045
0.587514 59.18 94.972731
0.587793 -84.74 95.43287
0.588071 26.77 94.925383
0.58835 21.78 95.175067
0.588628 17.64 94.881512
0.588907 -115.07 94.84563
0.589186 12.78 94.513586
0.589464 77.5 94.965296
0.589743 94.94 94.550614
0.590021 -48.55 94.40496
0.5903 -72.17 94.297544
0.590578 -54.61 95.203739
0.590857 -80.98 94.546126
0.591136 -47.28 94.309907
0.591414 29.96 94.578819
0.591693 -119.18 94.345669
0.591971 140.93 94.659389
0.59225 -125.14 94.048769
0.592528 -31.94 94.927437
0.592807 72.2 94.628066
0.593086 -209.9 94.834796
0.593364 35.71 94.63936
0.593643 134.64 94.517834
0.593921 42.52 94.547773
0.5942 -72.81 94.992466
0.594478 -38.3 94.162233
0.594757 136.31 94.372743
0.595036 -106.69 94.431237
0.595314 193.85 94.989021
0.595593 -124.09 95.226144
0.595871 45.27 94.735716
0.59615 180.71 94.628964
0.596428 94.48 94.723653
0.596707 56.46 94.515652
0.596986 -18.93 94.344658
0.597264 32.7 94.491282
0.597543 135.8 94.429764
0.597821 24.89 94.235001
0.5981 -44.2 94.088029
0.598378 2.05 94.650863
0.598657 122.59 94.380752
0.598935 6.21 93.975078
0.599214 -101.92 94.430055
0.599493 91.04 94.549681
0.599771 -77.31 94.259931
0.60005 -16.14 94.571822
0.600328 -64.97 93.86781
0.600607 -2.52 94.711921
0.600885 51.1 94.036837
0.601164 -136.03 94.524771
0.601443 99.24 94.546667
0.601721 -130.9 94.224228
0.602 -79.98 94.151121
0.602278 8.18 94.569447
0.602557 78.53 94.780512
0.602835 -54.75 94.293408
0.603114 40.84 94.173206
0.603393 25.68 94.490154
0.603671 -28.12 94.955241
0.60395 -81.6 94.282867
0.604228 30.11 94.801287
0.604507 77.77 94.622224
0.604785 -69.87 94.696709
0.605064 -58.17 94.728687
0.605343 -16.89 94.539036
0.605621 7.67 94.621983
0.6059 -9.4 94.748283
0.606178 -134.83 94.967642
0.606457 -50.14 95.067761
0.606735 18.37 94.791454
0.607014 -3.74 94.640529
0.607293 -8.38 95.151387
0.607571 51.74 94.4934
0.60785 153.25 94.662541
0.608128 34.96 94.642974
0.608407 -19.87 94.86435
0.608685 -166.41 94.640154
0.608964 -0.06 94.661562
0.609243 39.3 94.856211
0.609521 -73.89 96.912556
0.6098 -71.61 98.034045
0.610078 83.48 99.517217
0.610357 -159.76 99.773813
0.610635 41.53 100.79045
0.610914 -100.97 101.71859
0.611193 66.74 102.6014
0.611471 -99.32 102.48221
0.61175 -16.42 102.71764
0.612028 -57.2 103.91112
0.612307 112.9 104.09268
0.612585 -49.4 104.41046
0.612864 -31.98 104.97158
0.613143 162.16 106.05369
0.613421 -19.52 105.85041
0.6137 26.36 106.83891
0.613978 18.77 106.53216
0.614257 -81.12 107.55674
0.614535 82.74 108.28713
0.614814 -61.9 108.31972
0.615093 -101.84 108.16208
0.615371 133.98 109.18826
0.61565 -139.08 109.32559
0.615928 4.36 109.92255
0.616207 -71.26 107.23057
0.616485 67.71 105.53518
0.616764 -79.29 104.38923
0.617043 112.33 103.29814
0.617321 -47.62 102.73712
0.6176 -19.67 103.0014
0.617878 -90.21 101.97045
0.618157 30.5 101.75936
0.618435 -106.88 101.69402
0.618714 -52.17 101.46251
0.618993 -27.92 101.59279
0.619271 122.87 101.0312
0.61955 -114.58 101.39158
0.619828 -22.55 100.986
0.620107 85.57 100.77677
0.620385 29.37 100.58066
0.620664 164.14 100.6428
0.620943 -114.36 100.26169
0.621221 42.1 100.49261
0.6215 -72.07 99.989502
0.621778 -73.94 100.22274
0.622057 -2.15 99.443466
0.622335 68.57 100.08327
0.622614 60.65 99.545189
0.622893 172.37 99.18717
0.623171 22.2 99.906278
0.62345 -88.03 99.82586
0.623728 -137.34 99.8418
0.624007 120.68 99.773367
0.624285 15.82 99.467879
0.624564 77.44 99.393704
0.624843 23.25 99.582263
0.625121 -232.22 99.35554
0.6254 155.7 99.264678
0.625678 191.38 98.982402
0.625957 -25.13 99.720611
0.626235 54.61 99.423687
0.626514 26.77 98.848281
0.626793 -51.36 99.553079
0.627071 39.71 98.824463
0.62735 -62.89 98.836756
0.627628 67.87 98.837133
0.627907 -142.77 99.14488
0.628185 119.65 98.839031
0.628464 78.23 99.031633
0.628743 59.93 98.554465
0.629021 190.45 99.0542
0.6293 133.5 98.616524
0.629578 -24.53 98.79382
0.629857 -135.73 99.004818
0.630135 102.07 98.845694
0.630414 -116.52 98.662204
0.630693 75.03 98.445166
0.630971 -185.74 99.048227
0.63125 87.97 98.324296
0.631528 63.04 98.40372
0.631807 72.91 99.381323
0.632085 169.93 98.453951
0.632364 22.08 98.425304
0.632643 -115.41 98.353346
0.632921 -89.63 98.440764
0.6332 -94.73 99.102362
0.633478 174.19 98.231358
0.633757 -67.56 98.659688
0.634035 -43.91 98.06103
0.634314 -153.7 98.569009
0.634592 127.01 98.071869
0.634871 55.84 98.548672
0.63515 68.15 98.595894
0.635428 -71.86 98.533642
0.635707 -16.3 97.406162
0.635985 -106.62 98.214523
0.636264 33.97 97.866556
0.636542 81.41 97.810592
0.636821 84.5 97.895772
0.6371 84.29 97.494966
0.637378 199.72 97.814131
0.637657 -78.66 97.31366
0.637935 19.96 97.330037
0.638214 153.76 97.576079
0.638492 49.23 97.520056
0.638771 -11.23 97.460156
0.63905 99.87 97.259297
0.639328 29.91 97.044652
0.639607 -20.55 97.479261
0.639885 66.27 97.036981
0.640164 155.9 97.028286
0.640442 -29.33 97.101063
0.640721 10.86 96.444024
0.641 28.81 96.483002
0.641278 59.92 97.022957
0.641557 -53.57 96.562492
0.641835 83.45 96.447656
0.642114 -61.03 96.634418
0.642392 -121.17 96.83694
0.642671 -96.12 97.288829
0.64295 -97.76 96.919673
0.643228 53.97 96.965136
0.643507 189.58 96.644374
0.643785 103.09 96.964197
0.644064 107.79 97.211751
0.644342 -90.11 97.171284
0.644621 -154.72 96.738444
0.6449 -114.96 97.167123
0.645178 12.17 97.040207
0.645457 13.41 97.370119
0.645735 141.53 96.928299
0.646014 30.43 97.118423
0.646292 61.67 97.558542
0.646571 109.66 96.63422
0.64685 -25.72 96.810453
0.647128 49.44 96.988358
0.647407 53.72 96.917137
0.647685 2.17 96.99333
0.647964 -60 97.267875
0.648242 -113.8 96.742748
0.648521 108.3 97.226588
0.6488 -77.3 97.191871
0.649078 15.37 96.470334
0.649357 60.63 97.078232
0.649635 238.13 96.821153
0.649914 26.4 97.502383
0.650192 11.83 97.099514
0.650471 117.79 97.162327
0.65075 116.01 97.17688
0.651028 -108.13 96.983835
0.651307 192.78 97.131335
0.651585 45.76 97.033077
0.651864 -99.57 96.574127
0.652142 112.56 97.011139
0.652421 -175.49 96.186964
0.6527 -8.7 96.779884
0.652978 158.08 97.019269
0.653257 -169.14 96.577127
0.653535 -193.33 96.452463
0.653814 -69.9 97.003677
0.654092 99.95 96.531841
0.654371 83.36 97.003191
0.65465 -18.28 96.295035
0.654928 91.26 97.169118
0.655207 23.54 96.424467
0.655485 16.14 96.777444
0.655764 78.68 96.819185
0.656042 -214.97 96.732942
0.656321 -54.22 96.590876
0.6566 -49.49 96.511717
0.656878 -23.21 96.818465
0.657157 -64.39 96.734497
0.657435 150.91 96.452582
0.657714 164.21 96.74678
0.657992 -160.07 96.889853
0.658271 -141.3 96.617696
0.65855 21.85 96.860994
0.658828 -273.07 96.652268
0.659107 -46.82 97.116967
0.659385 70.76 97.09872
0.659664 -77.07 96.991697
0.659942 -45.22 96.798867
0.660221 -32.92 97.333911
0.6605 -21.96 96.867705
0.660778 166.07 97.16526
0.661057 -167.64 96.883314
0.661335 -34.21 96.507488
0.661614 -244.5 97.145204
0.661892 268.06 97.127452
0.662171 109.33 96.739774
0.66245 14.7 96.626639
0.662728 37.44 97.150787
0.663007 30.97 96.313128
0.663285 66.57 96.804487
0.663564 22.28 96.83145
0.663842 90.16 96.636197
0.664121 -198.75 96.711031
0.6644 -25.78 96.65293
0.664678 -143.61 96.412993
0.664957 -62.88 96.688233
0.665235 119.38 96.622216
0.665514 -2.15 96.050701
0.665792 -0.54 96.382631
0.666071 -176.54 96.391318
0.66635 -44.34 96.499925
0.666628 56.41 96.196048
0.666907 165.3 96.564188
0.667185 21.59 96.552308
0.667464 19.86 96.700679
0.667742 57.09 96.39098
0.668021 -86.28 96.546933
0.6683 45.43 95.991911
0.668578 -186.15 98.582209
0.668857 17.44 99.95326
0.669135 -8.73 101.06424
0.669414 194.1 101.75092
0.669692 170.26 103.3877
0.669971 4.6 103.13082
0.67025 8.66 104.19176
0.670528 116.36 104.17892
0.670807 -154.75 105.60913
0.671085 102.39 106.0979
0.671364 100.96 106.29341
0.671642 -59.83 107.29448
0.671921 29.21 107.57348
0.672199 -80.11 108.56206
0.672478 212.11 108.22675
0.672757 -38.23 109.53765
0.673035 43.04 110.29515
0.673314 -59.54 110.64337
0.673592 200.34 111.11123
0.673871 -29.74 112.28302
0.674149 97.84 111.79914
0.674428 61.1 112.95161
0.674707 0.66 113.70543
0.674985 -144.49 114.55533
0.675264 -101.65 113.9259
0.675542 97.77 113.89036
0.675821 11.17 114.98542
0.676099 100.88 115.60178
0.676378 99.94 115.90092
0.676657 -27.13 117.37983
0.676935 -30.43 117.54018
0.677214 90.73 117.29695
0.677492 -152 117.65599
0.677771 -13.03 118.19406
0.678049 79.29 119.53117
0.678328 -171.42 119.59235
0.678607 -184.26 120.13825
0.678885 -58.58 120.54031
0.679164 -28.66 120.90455
0.679442 -32.4 120.94026
0.679721 103.9 122.98949
0.679999 171.26 122.65801
0.680278 -186.97 123.35594
0.680557 98.73 124.16521
0.680835 42.79 124.89774
0.681114 -100.85 125.12327
0.681392 -10.18 124.4382
0.681671 -19.21 125.56656
0.681949 -79.55 126.0567
0.682228 -68.32 126.1241
0.682507 106.05 127.32881
0.682785 184.41 126.69058
0.683064 143.4 127.33733
0.683342 -302.2 127.84994
0.683621 -128.92 128.51549
0.683899 -115.44 128.05237
0.684178 -1.18 128.13831
0.684457 -179.06 129.01671
0.684735 -6.78 129.6298
0.685014 158.98 129.47212
0.685292 24.01 130.31061
0.685571 -38.72 131.24668
0.685849 -171.68 131.25308
0.686128 -104.8 132.34345
0.686407 38.61 131.88597
0.686685 -30.72 134.22293
0.686964 -60.7 134.27081
0.687242 -7.16 133.2801
0.687521 -93.45 134.97251
0.687799 60.89 136.71415
0.688078 -20.84 136.5504
0.688357 56.99 136.55797
0.688635 57.85 137.07755
0.688914 -134.72 137.5743
0.689192 -177.15 138.15852
0.689471 46.79 139.27414
0.689749 58.42 140.54522
0.690028 -19.86 139.9511
0.690307 -109.74 141.56338
0.690585 -2.27 140.93747
0.690864 123.17 142.42915
0.691142 -45.31 143.60387
0.691421 112.34 143.18068
0.691699 132.17 144.41995
0.691978 224.9 145.2101
0.692257 173.71 145.47893
0.692535 106.69 146.60461
0.692814 155.48 146.47197
0.693092 -46.58 145.08139
0.693371 -52.33 147.74716
0.693649 63.22 147.77339
0.693928 -98.38 149.16719
0.694207 -166.64 148.53506
0.694485 2.59 150.08375
0.694764 84.53 150.85863
0.695042 -125.73 152.34634
0.695321 150.23 151.95603
0.695599 2.96 153.40224
0.695878 -242.24 153.27359
0.696157 -43.53 154.81484
0.696435 121.99 155.16657
0.696714 163.02 155.39195
0.696992 134.01 158.18203
0.697271 143.79 157.29885
0.697549 -34.26 157.9918
0.697828 25.55 159.22665
0.698107 16.11 159.3906
0.698385 -308.16 161.31363
0.698664 107.84 162.12279
0.698942 174.42 162.13829
0.699221 -31.21 162.85189
0.699499 353.16 165.68119
0.699778 12.37 166.30554
0.700057 76.35 165.22321
0.700335 -279.89 165.98109
0.700614 -136.89 169.88284
0.700892 -47.82 169.15102
0.701171 210.27 170.57602
0.701449 -209.26 172.30729
0.701728 208.3 171.6343
0.702007 -74.33 175.51984
0.702285 -210.62 174.63787
0.702564 -121.77 175.83788
0.702842 -126.95 178.65985
0.703121 140.36 181.19232
0.703399 -156.38 181.33874
0.703678 -109.19 182.03444
0.703957 158.23 184.28588
0.704235 199.28 185.61225
0.704514 -63.91 186.61347
0.704792 0.71 186.46013
0.705071 -377.09 188.47621
0.705349 17.6 189.92067
0.705628 352.24 195.50323
0.705907 62.39 192.57274
0.706185 -84.6 196.26539
0.706464 128.13 197.70941
0.706742 116.81 197.21006
0.707021 457.68 197.51312
0.707299 -146.06 198.26835
0.707578 23.62 199.45211
0.707856 84.6 201.67397
0.708135 107.94 198.71425
0.708414 19.74 199.77098
0.708692 -33.9 203.06539
0.708971 -13.65 203.39978
0.709249 -286.45 207.80481
0.709528 -318.78 202.6253
0.709806 198.46 208.76248
0.710085 -292.94 211.89729
0.710364 132.03 214.87496
0.710642 74.82 214.36386
0.710921 -181.01 218.71671
0.711199 224.44 220.1182
0.711478 -447.34 224.87915
0.711756 322.05 224.94642
0.712035 58.39 228.25782
0.712314 28.56 233.38383
0.712592 94.57 235.29783
0.712871 -79.79 238.90829
0.713149 193.35 235.38775
0.713428 -389.63 245.22437
0.713706 288.71 250.98353
0.713985 213.58 250.37559
0.714264 -208.64 251.19465
0.714542 162.47 252.68705
0.714821 -251.63 258.56459
0.715099 121.9 263.02545
0.715378 -249.37 257.24212
0.715656 349.98 258.82368
0.715935 333.78 265.61345
0.716214 150.04 267.94605
0.716492 -161.93 267.9994
0.716771 234.7 269.25271
0.717049 -162.43 273.84743
0.717328 362.2 279.16052
0.717606 202.67 275.74993
0.717885 196.05 277.12438
0.718164 420.1 279.94448
0.718442 3.31 287.18915
0.718721 350.82 291.35674
0.718999 63.48 279.84638
0.719278 -262.85 293.84468
0.719556 104.18 296.54264
0.719835 382.08 302.96631
0.720114 -47.83 300.13337
0.720392 -623.63 298.50804
0.720671 21.9 310.22584
0.720949 82.01 321.18394
0.721228 -120.53 306.13703
0.721506 -96.9 314.03422
0.721785 -524.41 320.01089
0.722064 -156.6 327.28979
0.722342 -166.16 327.06242
0.722621 166.59 330.12542
0.722899 115.98 340.27371
0.723178 -294.98 337.32036
0.723456 419.44 347.0818
0.723735 192.73 341.56287
0.724014 -130.19 349.50654
0.724292 146.65 357.98293
0.724571 -500.99 361.387
0.724849 -88.6 363.566
0.725128 -269.65 372.40881
0.725406 455.66 384.11281
0.725685 -537.68 381.54812
0.725964 780.86 399.82018
0.726242 -315.42 392.88466
0.726521 53.8 401.03449
0.726799 646.73 412.737
0.727078 433.98 427.47816
0.727356 -616.6 435.69852
0.727635 -472.62 440.13796
0.727914 -583.07 445.7017
0.728192 677.02 470.2502
0.728471 318.84 482.10112
0.728749 288.64 489.89524
0.729028 -532.56 507.87942
0.729306 -356.58 513.87339
0.729585 -689.79 539.72222
0.729864 -203.12 566.12075
0.730142 764.38 590.89498
0.730421 -402.85 588.73693
0.730699 782.81 622.14606
0.730978 -940.37 648.68821
0.731256 499.2 683.22789
0.731535 -178.41 717.20465
0.731814 1357.95 758.4718
0.732092 -447.7 809.54778
0.732371 -1091.42 888.59765
0.732649 462.64 972.96584
0.732928 -752.35 1085.0121
0.733206 -1038.54 1333.6531

