# Q [1/Ã…] I(Q) [a.u.] dI(Q) [a.u.]
0.00223785 183747 30924.253
0.00251642 202948 23954.517
0.00279499 136365 16980.427
0.00307356 148800 13206.57
0.00335213 140914 9608.9697
0.0036307 170518 8158.3212
0.00390927 159145.9 6386.2683
0.00418784 154397.3 5481.1378
0.00446641 152956 4830.7648
0.00474498 156329.1 4261.0188
0.00502355 157636.2 3680.5762
0.00530212 149480.5 3305.7074
0.00558069 153485.3 2938.2148
0.00585926 153106.4 2775.3162
0.00613783 157025.7 2521.0823
0.0064164 152568.1 2219.7429
0.00669497 155184 2245.2489
0.00697355 154677.52 1986.2544
0.00725212 156247.56 1958.7798
0.00753069 152950.43 1797.467
0.00780926 155035.18 1731.0694
0.00808783 154217.47 1722.8453
0.0083664 152976.77 1610.6156
0.00864497 151330.18 1554.0984
0.00892354 152724.09 1497.0273
0.00920211 152892.11 1443.8936
0.00948068 154115.48 1468.5352
0.00975925 154132.64 1365.8096
0.0100378 153555.12 1358.8069
0.0103164 152518.28 1321.5093
0.010595 149713.12 1275.0526
0.0108735 152885.82 1278.4184
0.0111521 150569.47 1226.322
0.0114307 151583.94 1251.3329
0.0117092 151547.99 1186.3072
0.0119878 151920.56 1168.8591
0.0122664 151628.2 1169.1453
0.012545 151553.4 1124.4317
0.0128235 150088.62 1134.0154
0.0131021 149330.57 1109.1046
0.0133807 150394.4 1081.062
0.0136592 149480.66 1081.09
0.0139378 149818.3 1045.1364
0.0142164 149196.35 1054.714
0.0144949 149510.47 1034.9843
0.0147735 150705.52 1025.5588
0.0150521 148316.6 1009.3123
0.0153307 149945.5 994.18447
0.0156092 149377.08 988.9451
0.0158878 149911.97 982.00163
0.0161664 148231.98 956.21281
0.0164449 147979.62 964.55231
0.0167235 148176.25 930.25753
0.0170021 146660.34 927.40261
0.0172806 147098.99 927.02584
0.0175592 146029.78 915.33258
0.0178378 146999.82 904.11589
0.0181164 146130.14 890.75924
0.0183949 147450.01 889.03328
0.0186735 146340.84 875.08248
0.0189521 144834.51 888.13513
0.0192306 146668.8 903.38755
0.0195092 145326.76 900.1111
0.0197878 145426.5 897.52891
0.0200664 144907.52 899.3857
0.0203449 142161.36 890.21113
0.0206235 143566.87 891.14648
0.0209021 143660.75 884.7918
0.0211806 143193.9 883.35822
0.0214592 143735.16 891.11919
0.0217378 140500.82 872.77232
0.0220163 141143.47 874.66719
0.0222949 141581.17 873.77312
0.0225735 141167.83 870.02346
0.0228521 141148.95 869.08679
0.0231306 141873.62 859.86897
0.0234092 140509.41 863.77249
0.0236878 139262.07 861.85943
0.0239663 139916.97 850.32821
0.0242449 140975.18 854.38864
0.0245235 139854.4 841.25956
0.024802 139220.99 849.8843
0.0250806 138634.05 843.30015
0.0253592 137574.45 821.59529
0.0256378 138589.75 820.36639
0.0259163 138472.12 795.87738
0.0261949 135851.12 790.89146
0.0264735 137131.13 775.8438
0.026752 136351.02 754.38892
0.0270306 136027.97 758.12076
0.0273092 136092.88 752.92883
0.0275877 136027.75 742.00608
0.0278663 134757.45 736.99067
0.0281449 135155.55 725.92142
0.0284235 135579.53 734.07193
0.028702 134005.99 716.11884
0.0289806 133613.55 706.53343
0.0292592 134211.81 710.24341
0.0295377 131921.94 695.9175
0.0298163 132918.35 692.12261
0.0300949 132171.03 687.41203
0.0303735 131028.85 678.58482
0.030652 130673.79 681.43249
0.0309306 130620.89 673.7008
0.0312092 131117.94 665.83113
0.0314877 130623.78 668.03097
0.0317663 129187.67 656.84171
0.0320449 128503.6 653.42155
0.0323234 128686.74 652.71571
0.032602 127723.86 640.14699
0.0328806 128399.56 641.22823
0.0331592 127432.21 637.88596
0.0334377 126774.12 634.84666
0.0337163 128340.64 642.87085
0.0339949 125920.78 637.25876
0.0342734 125923.68 652.52323
0.034552 125620.67 646.60257
0.0348306 124456.59 639.35254
0.0351091 124195.57 644.56518
0.0353877 123803.41 644.30645
0.0356663 123721.87 649.73847
0.0359449 123586.28 636.9949
0.0362234 122761.77 636.67639
0.036502 122671.19 642.33252
0.0367806 122648.05 637.22202
0.0370591 122642.82 645.6456
0.0373377 121296.44 630.03525
0.0376163 121556.95 632.40996
0.0378949 119823.41 630.37924
0.0381734 120539.63 624.71078
0.038452 119747.17 632.00201
0.0387306 118832.74 618.11127
0.0390091 118978.94 629.3652
0.0392877 117976.23 622.53391
0.0395663 117580.46 612.49959
0.0398448 117751.48 619.45296
0.0401234 117035.27 614.23657
0.040402 116490.21 619.94327
0.0406806 116033.21 612.70881
0.0409591 115715.06 601.48872
0.0412377 113837.47 606.80977
0.0415163 114651.06 601.93986
0.0417948 114449.2 603.07745
0.0420734 113128.74 599.05581
0.042352 113152.25 598.91927
0.0426305 113601.6 609.45788
0.0429091 112738.02 602.45467
0.0431877 111732.27 609.9652
0.0434663 109915.68 602.50456
0.0437448 111008.19 618.92204
0.0440234 109464.01 615.22484
0.044302 109339.54 608.03141
0.0445805 109876.59 616.56322
0.0448591 109449.71 613.84868
0.0451377 109362.92 625.30619
0.0454163 108782.13 619.19599
0.0456948 106553.66 612.8622
0.0459734 107060.99 616.49667
0.046252 105662.33 615.25105
0.0465305 107032.65 606.85868
0.0468091 105968.06 603.0131
0.0470877 105355.31 594.59281
0.0473662 104859.32 587.33761
0.0476448 103874.63 585.43647
0.0479234 103617.77 576.34454
0.048202 102988.49 574.33974
0.0484805 102143.41 571.12867
0.0487591 101014.66 560.0574
0.0490377 101221 564.41259
0.0493162 99875.47 551.7236
0.0495948 100560.11 556.55691
0.0498734 100334.54 549.82748
0.0501519 99464.37 549.71799
0.0504305 98402.49 552.14218
0.0507091 98371.95 546.27166
0.0509877 96421 544.09309
0.0512662 96549.39 541.9395
0.0515448 96358.36 539.19418
0.0518234 95588.04 540.53825
0.0521019 95721.95 536.7109
0.0523805 95297.22 537.94933
0.0526591 95473.13 539.58392
0.0529376 94427.35 530.67329
0.0532162 93878.27 534.46741
0.0534948 92716.12 526.91738
0.0537734 92954.89 527.04247
0.0540519 92377.66 522.9333
0.0543305 91456.42 520.99493
0.0546091 91169.31 518.95142
0.0548876 90449.91 508.29213
0.0551662 90939 511.36111
0.0554448 90188.32 511.09875
0.0557234 89409.39 502.45972
0.0560019 87602.88 503.10205
0.0562805 89199.84 497.92288
0.0565591 86648.4 494.77088
0.0568376 87966.02 498.17545
0.0571162 85881.76 489.19181
0.0573948 86510.6 494.05045
0.0576733 85686.33 486.78032
0.0579519 84545.83 487.14093
0.0582305 85115 486.5618
0.0585091 84184.03 481.56466
0.0587876 84475.27 483.18181
0.0590662 83338.41 480.97959
0.0593448 82947.03 479.1257
0.0596233 81893.51 474.00631
0.0599019 81735.71 472.03243
0.0601805 81663.2 477.30175
0.060459 80924.76 469.6202
0.0607376 80388.31 463.8783
0.0610162 80230.93 466.05628
0.0612948 79140.01 465.06122
0.0615733 78888.6 463.60377
0.0618519 78410.16 459.05204
0.0621305 78577.51 458.76988
0.062409 77314.89 454.83192
0.0626876 77796.79 459.99103
0.0629662 76268.15 450.37744
0.0632448 75959.06 450.94517
0.0635233 76261.2 449.23763
0.0638019 74491.31 445.8106
0.0640805 73944.18 445.60061
0.064359 74117.61 439.93246
0.0646376 74432.63 444.74453
0.0649162 73200.25 440.55478
0.0651947 71865.72 437.29805
0.0654733 72108.95 435.27345
0.0657519 71041.58 430.08726
0.0660305 71989.85 436.5828
0.066309 71703.13 432.07211
0.0665876 70430.84 428.6183
0.0668662 70434.79 426.16201
0.0671447 69132.56 422.87228
0.0674233 68970.65 424.93134
0.0677019 68378.59 419.29993
0.0679804 68322.11 422.50953
0.068259 67529.38 418.92374
0.0685376 66403.21 413.98958
0.0688162 66478.66 415.04304
0.0690947 66176.03 409.63454
0.0693733 65040.49 411.9231
0.0696519 65516.98 410.68776
0.0699304 65087.38 408.86452
0.070209 64449.13 407.17826
0.0704876 64503.97 401.7725
0.0707662 63987.63 406.07196
0.0710447 62696.25 400.68579
0.0713233 63002.42 400.28205
0.0716019 61943.49 397.94005
0.0718804 61123.7 391.21002
0.072159 61066.66 394.87214
0.0724376 60579.36 391.95968
0.0727161 60768.84 390.58287
0.0729947 59618.29 388.96767
0.0732733 59732.25 389.6034
0.0735519 59244.93 385.99701
0.0738304 58224.91 383.07727
0.074109 57765.49 381.05281
0.0743876 57874.27 380.8868
0.0746661 57358.29 379.0909
0.0749447 56370.07 374.75463
0.0752233 56454.8 375.57043
0.0755018 56349.95 375.60946
0.0757804 55289.55 373.55312
0.076059 55625.5 373.91916
0.0763376 54654.28 371.00903
0.0766161 54464.63 366.846
0.0768947 53920.16 367.1605
0.0771733 53614.5 366.06734
0.0774518 53032.42 361.95964
0.0777304 52449.78 359.30371
0.078009 51681.28 368.4392
0.0782875 50896.19 366.10113
0.0785661 50581.16 367.40642
0.0788447 50637.76 370.75841
0.0791233 50876.81 373.99167
0.0794018 49998.64 377.7146
0.0796804 49723.89 371.89672
0.079959 48652.64 372.37172
0.0802375 48604.3 372.14219
0.0805161 48978.53 376.59533
0.0807947 47777.98 375.86696
0.0810733 47028.65 370.05919
0.0813518 47258.48 376.23418
0.0816304 46943.84 373.92574
0.081909 46908.35 376.09416
0.0821875 45942.3 372.72349
0.0824661 45628.5 372.78592
0.0827447 45136.25 372.97022
0.0830232 45376.22 373.82968
0.0833018 44409.39 369.15083
0.0835804 44444.17 372.84428
0.083859 43345.72 370.33142
0.0841375 42621.7 370.40882
0.0844161 42889.49 367.48182
0.0846947 42850.01 361.1311
0.0849732 42692.63 358.59992
0.0852518 41616.07 352.53776
0.0855304 41156.97 348.7547
0.0858089 41505.43 345.1137
0.0860875 40558.62 342.03753
0.0863661 40164.73 340.03724
0.0866447 39916.95 336.55323
0.0869232 39462.15 335.02605
0.0872018 39207.63 332.52671
0.0874804 39387.35 333.9366
0.0877589 38184.62 327.92666
0.0880375 38546.34 325.46454
0.0883161 37719.8 323.78119
0.0885947 37747.84 324.46101
0.0888732 37458.26 321.96311
0.0891518 36278.77 317.38041
0.0894304 36593.57 316.27006
0.0897089 36596.51 315.77679
0.0899875 35601 312.53544
0.0902661 35926.9 311.55255
0.0905446 34640.29 307.24659
0.0908232 34820.16 307.69538
0.0911018 34610.74 305.49578
0.0913804 34390.17 303.1884
0.0916589 33718.89 299.83647
0.0919375 34051.77 307.74839
0.0922161 33060.87 311.29846
0.0924946 33199.22 309.25492
0.0927732 32398.73 310.86949
0.0930518 32835.37 313.20413
0.0933303 32222.33 313.2437
0.0936089 31210.38 311.59222
0.0938875 31528.66 311.91345
0.0941661 30616.62 312.50663
0.0944446 30938.66 310.96616
0.0947232 30571.71 308.84169
0.0950018 30659.55 310.71554
0.0952803 29605.19 308.54703
0.0955589 29697.36 312.68179
0.0958375 29311.78 305.4164
0.0961161 29407.04 301.57046
0.0963946 28561.12 296.10429
0.0966732 28589.78 293.5377
0.0969518 28113.31 292.65102
0.0972303 27545.03 289.25986
0.0975089 27591.32 287.04472
0.0977875 26925.88 283.32632
0.098066 26760.12 283.70767
0.0983446 26686.25 283.22681
0.0986232 26595.47 280.70941
0.0989018 26012.34 281.35777
0.0991803 25948.36 278.55121
0.0994589 26066.29 276.06504
0.0997375 25698.09 276.14403
0.100016 25185.1 273.3806
0.100295 24661.11 271.64723
0.100573 24644.47 268.56372
0.100852 24423.53 267.90413
0.10113 23853.28 265.58658
0.101409 23830.18 264.31134
0.101687 23704.56 262.99602
0.101966 23567.5 262.78136
0.102245 23008.98 260.0042
0.102523 22568.01 259.41321
0.102802 22731.31 258.66874
0.10308 22149.7 256.78802
0.103359 22192.28 256.39636
0.103637 22028.27 256.05917
0.103916 21426.74 253.47841
0.104195 21052.4 252.19224
0.104473 21490.66 251.54367
0.104752 20902.41 250.21292
0.10503 20514.85 249.4665
0.105309 20509.1 247.98009
0.105587 20478.95 248.96354
0.105866 19971.9 244.94166
0.106145 20153.63 246.23631
0.106423 19643.5 244.45188
0.106702 19318.57 242.18828
0.10698 19375.01 244.28664
0.107259 19168.54 240.80776
0.107537 18445.19 241.12351
0.107816 18501.6 238.54788
0.108095 18371.63 238.03784
0.108373 18118.13 238.47346
0.108652 17868.27 236.08745
0.10893 17029.04 234.57933
0.109209 17441.28 234.28088
0.109487 17392.64 232.83346
0.109766 17046.64 234.06187
0.110045 16922.26 232.39732
0.110323 16862.55 231.21701
0.110602 16724.97 229.67885
0.11088 16594.12 229.90508
0.111159 16339.18 231.01135
0.111437 15931.06 226.07148
0.111716 15919.12 226.77333
0.111995 15431.52 225.85535
0.112273 15547.04 224.76872
0.112552 15606.12 226.44061
0.11283 15314.02 223.73406
0.113109 15091.31 222.61505
0.113387 14961.74 222.36633
0.113666 14736.61 222.01084
0.113945 14552.47 219.99273
0.114223 14458.17 219.89082
0.114502 14475.37 219.3449
0.11478 13919.4 219.37283
0.115059 13829.64 216.87797
0.115337 13516.29 215.02309
0.115616 13244.5 214.48027
0.115895 13446.6 215.12209
0.116173 13262.3 215.12899
0.116452 13224.3 213.30604
0.11673 12801.1 213.11466
0.117009 12784.96 211.39178
0.117287 12559.32 210.2411
0.117566 12325.67 209.67348
0.117845 11883.31 208.54593
0.118123 11942.99 208.14007
0.118402 12011.93 208.12993
0.11868 11722.76 206.04349
0.118959 11289.99 205.03459
0.119237 11141.77 204.60896
0.119516 11162.71 205.05435
0.119795 10961.8 203.32131
0.120073 11030.67 201.63365
0.120352 11042.14 204.16065
0.12063 11100.6 202.82132
0.120909 10667.74 200.0314
0.121187 10758.27 200.47125
0.121466 10183.59 198.40713
0.121745 10401.9 199.57781
0.122023 9809.19 195.33805
0.122302 9544.53 194.23935
0.12258 10153.09 194.95529
0.122859 9901.89 195.39918
0.123137 9549.27 194.35822
0.123416 9784.96 192.90301
0.123695 9825.01 193.56887
0.123973 9505.45 193.6535
0.124252 9015.83 190.73439
0.12453 9294.16 191.21786
0.124809 8695.78 189.24021
0.125087 8917.74 191.31596
0.125366 8647.41 189.26991
0.125645 8961.68 188.42689
0.125923 8412.96 188.4628
0.126202 8302.3 187.22596
0.12648 8093.2 187.67533
0.126759 8168.34 187.29439
0.127037 8185.76 186.7478
0.127316 8047.66 186.29773
0.127594 8151.68 186.17089
0.127873 7567.73 184.64585
0.128152 7815.38 186.077
0.12843 7593.95 183.20526
0.128709 7784.3 184.2075
0.128987 7209.14 182.48353
0.129266 7295.44 182.6866
0.129544 7383.16 183.21096
0.129823 7155.88 182.09139
0.130102 6887.65 181.0069
0.13038 6860.04 180.43064
0.130659 6701.34 179.68143
0.130937 6800.01 179.51996
0.131216 6431.98 178.5352
0.131494 6340.67 177.63658
0.131773 6626.7 178.72271
0.132052 6311.28 175.99591
0.13233 6594.44 178.88066
0.132609 6234.15 176.53146
0.132887 6180.3 176.36568
0.133166 6007.46 176.13241
0.133444 5886.53 175.02936
0.133723 6087.51 175.59849
0.134002 5959.24 172.83742
0.13428 5947.7 173.74762
0.134559 5918.06 175.11803
0.134837 5395.67 171.57344
0.135116 5590.86 172.31174
0.135394 5570.17 171.41793
0.135673 5423.86 171.10834
0.135952 5541.17 172.2736
0.13623 5203.82 168.8428
0.136509 5334.21 170.67962
0.136787 4960.67 169.12108
0.137066 4800.65 170.79577
0.137344 5335.02 175.00056
0.137623 5208.27 174.61167
0.137902 4938.43 176.59091
0.13818 4898.46 175.68765
0.138459 4643.97 175.57536
0.138737 4356.83 176.29082
0.139016 4775.85 175.98155
0.139294 4240.84 178.08182
0.139573 4500.56 176.83272
0.139852 4654.77 178.14915
0.14013 4288.94 178.36983
0.140409 4509.42 179.09438
0.140687 4169.68 178.73449
0.140966 4294.16 178.70624
0.141244 3914.94 177.95836
0.141523 4030.94 180.62511
0.141802 4006.72 178.40018
0.14208 4160.2 180.6583
0.142359 3773.36 178.5619
0.142637 4082.38 179.99193
0.142916 3890.02 180.62156
0.143194 4129.21 179.81115
0.143473 3837.15 180.36782
0.143752 3440.38 175.62029
0.14403 3881.21 175.80415
0.144309 3774.23 172.91051
0.144587 3872.26 171.6109
0.144866 3945 171.19046
0.145144 3883.91 170.33402
0.145423 3368.67 168.38959
0.145702 3397.36 167.21662
0.14598 3545.13 168.30767
0.146259 3278.2 166.52396
0.146537 3171.78 165.46124
0.146816 3234.31 165.88914
0.147094 3186.76 165.21979
0.147373 3097.08 163.53029
0.147652 3242.72 163.77321
0.14793 3129.27 163.28107
0.148209 3303.17 163.98077
0.148487 2975.25 162.80971
0.148766 2712.94 161.17236
0.149044 3012.74 162.68432
0.149323 3023.4 160.94072
0.149602 2959.67 160.15622
0.14988 2833.33 160.13387
0.150159 2717.4 160.56768
0.150437 2828.95 160.16901
0.150716 2686.38 160.79185
0.150994 2596.22 159.04063
0.151273 3130.76 159.89767
0.151552 2778.6 158.3296
0.15183 2516.55 157.23079
0.152109 2497.82 158.49145
0.152387 2915.84 158.46476
0.152666 2172.99 156.82248
0.152944 2633.94 156.65051
0.153223 2571.33 156.41327
0.153502 2620.14 156.88149
0.15378 2409.06 155.31582
0.154059 2476.34 156.64126
0.154337 2504.87 155.96121
0.154616 2365.33 155.15902
0.154894 2648.21 156.56908
0.155173 2661.23 155.1499
0.155452 2263.9 154.44565
0.15573 2392.93 154.93649
0.156009 2286.31 154.00595
0.156287 2388.96 153.60921
0.156566 2173.2 152.06576
0.156844 2405.35 153.93201
0.157123 2127.22 153.49891
0.157402 2151.65 151.73539
0.15768 2204.48 152.79215
0.157959 2100.56 151.29661
0.158237 2180.51 151.7677
0.158516 2120.14 152.55847
0.158794 2261.34 151.50956
0.159073 2160.91 151.02757
0.159352 1939.3 151.36374
0.15963 2120.08 150.793
0.159909 1859.12 150.10126
0.160187 1915.98 148.76987
0.160466 1738.37 150.04433
0.160744 2117.84 150.31
0.161023 1765.35 148.65871
0.161302 1886.07 149.06939
0.16158 1827.31 148.49618
0.161859 1930.4 149.08037
0.162137 1737.92 148.8523
0.162416 1774.49 147.85768
0.162694 1658.89 148.23593
0.162973 1651.35 147.09074
0.163252 1713.11 147.44778
0.16353 1811.65 147.57918
0.163809 1895.38 147.32434
0.164087 1705.72 147.52581
0.164366 2001.28 147.71008
0.164644 1771.94 146.22216
0.164923 1864.02 147.13818
0.165201 1760.24 145.0736
0.16548 1785.28 146.13658
0.165759 1856.48 146.00935
0.166037 1504.55 144.48069
0.166316 1710.79 145.30462
0.166594 1469.96 144.60592
0.166873 1765.25 145.60875
0.167151 1838.56 144.43475
0.16743 1748.16 143.82257
0.167709 1680.38 144.66834
0.167987 1737.82 143.40502
0.168266 1667.55 144.4118
0.168544 1543.28 144.05349
0.168823 1630.12 143.63333
0.169101 1566.26 143.1259
0.16938 1419.76 142.83977
0.169659 1552.03 143.72865
0.169937 1600.22 143.12194
0.170216 1704.64 142.89432
0.170494 1547.9 143.15683
0.170773 1682.34 142.21388
0.171051 1542.5 142.45267
0.17133 1402.84 142.12757
0.171609 1655.83 142.74421
0.171887 1405.11 142.31178
0.172166 1634.73 143.00098
0.172444 1533.72 142.06676
0.172723 1580.26 142.28323
0.173001 1566.75 142.4179
0.17328 1768.68 142.15568
0.173559 1632.89 142.71179
0.173837 1390.4 141.33115
0.174116 1402.55 141.32971
0.174394 1118.3 140.70382
0.174673 1349.72 141.56466
0.174951 1585.82 141.58175
0.17523 1288.58 140.11567
0.175509 1317.59 141.66626
0.175787 1643.37 141.3669
0.176066 1164.68 140.21355
0.176344 1515.41 141.663
0.176623 1372.91 139.50159
0.176901 1613.7 140.4248
0.17718 1376.39 140.10727
0.177459 1353.88 140.06841
0.177737 1290.45 140.17291
0.178016 1385.81 139.1133
0.178294 1183.05 139.80618
0.178573 1369.93 139.57625
0.178851 1172.11 139.96653
0.17913 1228.09 138.33633
0.179409 1320.52 139.56642
0.179687 1418.11 139.66662
0.179966 1257.51 139.80768
0.180244 1622.38 139.957
0.180523 1500.7 138.99725
0.180801 1300.51 138.55327
0.18108 1369.82 138.8019
0.181359 1327.15 138.51311
0.181637 1298.28 139.05398
0.181916 1281.12 137.88593
0.182194 1559.72 138.645
0.182473 1309.62 138.69538
0.182751 1187.7 137.62631
0.18303 1417.02 139.69571
0.183309 1400.12 139.47123
0.183587 1539.04 139.81547
0.183866 1516.89 139.57141
0.184144 1195.48 138.88417
0.184423 1354.48 140.78793
0.184701 1274.18 140.02869
0.18498 1321.55 140.03242
0.185259 1391.66 139.66779
0.185537 1519.6 139.38416
0.185816 1308.33 139.26919
0.186094 1289.63 140.08898
0.186373 1335.82 138.9538
0.186651 1261.87 138.90907
0.18693 1253.08 138.84276
0.187209 1379.16 138.11704
0.187487 1267.68 138.16538
0.187766 1166.52 137.23122
0.188044 1353.62 137.91857
0.188323 1167.69 138.30242
0.188601 1408.98 137.41775
0.18888 1157.61 137.86105
0.189159 1281.99 136.74789
0.189437 1276.58 137.32805
0.189716 1184.22 137.14822
0.189994 1404.61 136.98011
0.190273 1245.86 137.08152
0.190551 1560.46 136.88469
0.19083 1192.75 135.63794
0.191109 1416.55 137.22466
0.191387 1166.13 135.2361
0.191666 1365.73 136.63196
0.191944 1377.58 135.86504
0.192223 1493.87 135.98023
0.192501 1279.82 135.80109
0.19278 1186.11 135.03251
0.193059 1305.25 135.38269
0.193337 1625.01 136.02875
0.193616 1375.24 135.58839
0.193894 1321.32 135.39532
0.194173 1526.63 135.38543
0.194451 1141.69 134.68195
0.19473 1250.64 135.06896
0.195009 1145.67 134.01682
0.195287 1316.57 135.12084
0.195566 1518.08 134.37293
0.195844 1352.46 135.15463
0.196123 1228.48 135.90374
0.196401 1215.9 137.51964
0.19668 1353.99 138.68485
0.196959 1481.11 138.50291
0.197237 1488 140.94943
0.197516 1199.78 139.35909
0.197794 1282.29 140.16888
0.198073 1271.68 141.50793
0.198351 1476.58 141.46705
0.19863 1260.2 142.0691
0.198909 1161.51 140.86812
0.199187 1148.55 140.83975
0.199466 1503.92 143.69608
0.199744 1214.86 141.86405
0.200023 1448.14 142.97034
0.200301 1374.02 143.24225
0.20058 1343.82 143.78017
0.200858 1247.66 144.66847
0.201137 1268.81 144.3202
0.201416 1087.88 143.8611
0.201694 1143.58 144.35175
0.201973 1298.89 145.08121
0.202251 1116.09 145.81075
0.20253 1648.79 147.76327
0.202808 1243.78 143.56473
0.203087 1486.46 143.30733
0.203366 1308.11 141.85832
0.203644 941.68 140.47156
0.203923 1395.06 140.02477
0.204201 1341.86 139.69847
0.20448 1447.48 139.77368
0.204758 1479.53 138.75896
0.205037 1080.2 138.0483
0.205316 1297.18 139.11684
0.205594 1470.13 138.18418
0.205873 1258.88 138.51692
0.206151 1114.4 136.57861
0.20643 1476.96 138.14122
0.206708 1433.52 137.64189
0.206987 1304.73 136.83195
0.207266 1330.66 136.91579
0.207544 1075.25 135.41111
0.207823 1319.55 137.6304
0.208101 1129.29 136.27926
0.20838 1420.69 136.52424
0.208658 1246.84 136.58616
0.208937 1363.19 135.55376
0.209216 1371.21 137.10957
0.209494 1240.1 135.09777
0.209773 1248.46 134.77385
0.210051 1403.11 136.01218
0.21033 1265.15 135.05492
0.210608 1319.43 135.78491
0.210887 1344.77 135.27888
0.211166 1389.82 134.90922
0.211444 1211.7 134.73602
0.211723 1233.4 134.1137
0.212001 1252.64 134.67592
0.21228 1427.33 134.42289
0.212558 1467.68 135.45488
0.212837 1295.84 134.13296
0.213116 1486.03 133.50858
0.213394 1154.33 133.7141
0.213673 1300.12 133.85802
0.213951 1099.12 133.5417
0.21423 1392.85 133.29435
0.214508 1229.68 132.84621
0.214787 1326 133.22119
0.215066 1140.54 133.17122
0.215344 1476.7 132.65622
0.215623 1500.17 133.98117
0.215901 1498.91 132.89223
0.21618 1255.37 131.65548
0.216458 1492.29 132.68159
0.216737 1337.54 132.67562
0.217016 1108.23 131.33396
0.217294 1332.71 132.74034
0.217573 1285.92 132.05259
0.217851 1143.35 131.1306
0.21813 1303.23 130.99163
0.218408 1220.31 131.55157
0.218687 1506.71 131.65699
0.218966 1196.96 131.39861
0.219244 1550.51 131.89145
0.219523 1403.54 130.92673
0.219801 1361.05 131.79443
0.22008 1457.51 130.73651
0.220358 1279.09 130.35886
0.220637 1388.69 131.14688
0.220916 1348.88 130.2951
0.221194 1187.46 130.54128
0.221473 1160 129.98153
0.221751 1072.86 129.6776
0.22203 1262.74 130.74266
0.222308 1319.86 130.54861
0.222587 1217.52 129.57329
0.222866 1305.3 129.80984
0.223144 1466.35 130.11669
0.223423 1318.31 130.62832
0.223701 1162.81 128.56898
0.22398 1094.18 129.64485
0.224258 1184.85 130.42916
0.224537 1154.5 129.47101
0.224816 1374.81 129.37132
0.225094 1240.51 128.97566
0.225373 994.73 128.90213
0.225651 1434.03 130.35904
0.22593 1397.1 129.24478
0.226208 1373.46 129.80738
0.226487 1194.19 128.31007
0.226766 1133.35 128.08083
0.227044 1453.51 128.79423
0.227323 1171.22 129.27295
0.227601 1261.26 127.9504
0.22788 1478.25 128.72079
0.228158 1333.74 128.06541
0.228437 1260.02 128.1321
0.228716 1307.53 128.10848
0.228994 1231.23 127.62936
0.229273 1088.24 126.92836
0.229551 1325.52 127.32939
0.22983 1209.14 127.40887
0.230108 1398.98 127.85152
0.230387 1387.49 128.05267
0.230666 1173.72 127.90665
0.230944 1189.06 126.98011
0.231223 1440.34 128.06705
0.231501 1285.11 128.00015
0.23178 1525.17 128.78284
0.232058 1375.78 129.48344
0.232337 1127.09 127.8519
0.232616 1314.08 128.9776
0.232894 1142.3 127.75639
0.233173 1091.15 128.58762
0.233451 955.87 129.16296
0.23373 1307.28 129.62419
0.234008 1401.58 129.53789
0.234287 1246.76 129.83534
0.234566 1226.97 129.47018
0.234844 1133.77 129.60776
0.235123 1115.24 128.88969
0.235401 1197.95 129.45923
0.23568 1223.1 128.36939
0.235958 1124.7 128.64793
0.236237 1065.41 128.51324
0.236515 1121.87 127.72552
0.236794 1188.8 128.12512
0.237073 1171.85 127.74718
0.237351 1137.07 128.02067
0.23763 1429.49 128.46458
0.237908 977.77 127.10894
0.238187 1018.91 127.15816
0.238465 1306.82 127.67219
0.238744 1143 127.07655
0.239023 1281.12 127.79887
0.239301 1135.52 126.34332
0.23958 1193.41 127.54008
0.239858 1362.62 126.97583
0.240137 1133.17 126.61524
0.240415 971.21 126.16768
0.240694 1289.4 126.31833
0.240973 1158.42 126.41666
0.241251 1146.3 126.36128
0.24153 1240.38 126.14047
0.241808 1035.53 125.3455
0.242087 1060.69 125.94043
0.242365 991.46 125.71209
0.242644 1175.73 124.76913
0.242923 964.08 124.6542
0.243201 1214.59 125.13356
0.24348 1191.07 124.69497
0.243758 1384.19 125.60705
0.244037 1160.03 123.96436
0.244315 1176.64 124.12054
0.244594 1135.12 124.17076
0.244873 1238.32 124.69777
0.245151 1009.57 123.01623
0.24543 1070.1 124.03249
0.245708 1171.39 123.18502
0.245987 1141.96 123.2722
0.246265 1122.06 124.17587
0.246544 950.61 122.72879
0.246823 1310.07 124.3214
0.247101 855.18 122.47862
0.24738 1125.74 123.74095
0.247658 1253.85 122.99635
0.247937 1006.16 122.78806
0.248215 879.67 123.01406
0.248494 1101.25 123.25261
0.248773 761.09 122.29018
0.249051 1024.46 123.37534
0.24933 1136.29 123.43547
0.249608 844.73 122.80194
0.249887 958.21 122.00814
0.250165 974.38 122.57102
0.250444 1050.64 122.52699
0.250723 1025.44 122.60804
0.251001 1009.52 123.08067
0.25128 1028.29 122.57954
0.251558 896.26 122.25683
0.251837 855.6 121.11811
0.252115 975.82 122.2732
0.252394 1314.71 123.24843
0.252673 1152.11 122.17255
0.252951 834.04 121.98274
0.25323 1157.17 121.88839
0.253508 889.97 121.3817
0.253787 987.08 121.99169
0.254065 1179.68 122.02175
0.254344 1111.6 121.42632
0.254623 1175.94 121.84188
0.254901 810.28 121.6015
0.25518 812.66 122.76467
0.255458 1008.45 123.67355
0.255737 1124.28 125.51822
0.256015 931.51 126.04321
0.256294 933.42 126.30895
0.256573 1138.37 127.23921
0.256851 907.76 127.34986
0.25713 1147.5 128.16211
0.257408 782.51 127.71945
0.257687 1296.7 129.51981
0.257965 938.45 128.03841
0.258244 995.68 129.31412
0.258523 1021.7 129.67035
0.258801 859.84 129.09779
0.25908 879.77 130.23218
0.259358 598.92 128.83183
0.259637 944.14 131.15736
0.259915 908.46 129.98954
0.260194 988.26 131.51083
0.260473 777.62 130.22066
0.260751 1031.07 130.95211
0.26103 1096.88 132.26836
0.261308 866.99 131.9542
0.261587 884.78 131.4322
0.261865 1066.39 130.72705
0.262144 748.73 128.69543
0.262423 907.89 128.44408
0.262701 836.39 127.51927
0.26298 979.18 127.70567
0.263258 778.48 126.49177
0.263537 869.59 126.43336
0.263815 948.27 126.43295
0.264094 534.2 124.0381
0.264373 872.37 126.71202
0.264651 928.5 125.43004
0.26493 675.28 124.28154
0.265208 743.67 124.82416
0.265487 834.32 124.88988
0.265765 1008.49 126.32173
0.266044 942.78 124.25456
0.266323 613.5 124.06798
0.266601 537.51 122.82943
0.26688 787.34 123.66933
0.267158 919.37 124.15178
0.267437 702.28 122.97607
0.267715 690.68 122.72263
0.267994 953.14 123.68106
0.268273 683.98 121.61742
0.268551 1067.51 123.52447
0.26883 871.45 121.45671
0.269108 694.11 121.99141
0.269387 950.71 122.08836
0.269665 718.3 120.5716
0.269944 727.37 121.64143
0.270223 796.78 121.00231
0.270501 852.17 120.75207
0.27078 843.9 121.13198
0.271058 791.07 120.30615
0.271337 719.94 120.2838
0.271615 876.48 120.08922
0.271894 810.34 120.38022
0.272172 874.09 120.47659
0.272451 899.17 120.07224
0.27273 686.81 120.01988
0.273008 830.91 120.65877
0.273287 794.5 119.5398
0.273565 719.1 119.93552
0.273844 654.05 119.59641
0.274122 903.11 120.04301
0.274401 950.38 120.32751
0.27468 529.84 119.59721
0.274958 982.07 120.56238
0.275237 776.45 119.25598
0.275515 517.56 118.86387
0.275794 636.83 119.26766
0.276072 729.36 119.24619
0.276351 872.33 119.79566
0.27663 697.31 118.20159
0.276908 755.2 119.05949
0.277187 917.38 119.76234
0.277465 734.4 118.41891
0.277744 814.4 119.42407
0.278022 398.23 118.12932
0.278301 870.17 118.51823
0.27858 576.81 118.74066
0.278858 503.03 118.29558
0.279137 658.85 119.43967
0.279415 801.13 119.13982
0.279694 708.96 118.59171
0.279972 716.47 118.37019
0.280251 669.64 118.12332
0.28053 671.28 117.80529
0.280808 538.49 118.43191
0.281087 607.7 117.99513
0.281365 526.65 117.77763
0.281644 690.86 117.81347
0.281922 678.87 117.56365
0.282201 777.91 118.70912
0.28248 788.77 117.91177
0.282758 655.47 117.22348
0.283037 506.08 117.23156
0.283315 712.86 117.61261
0.283594 697.3 117.31128
0.283872 578.44 116.85558
0.284151 614.71 117.89406
0.28443 539.71 117.12721
0.284708 461.74 116.89105
0.284987 484.86 116.74894
0.285265 731.72 117.281
0.285544 715.5 117.1098
0.285822 589.35 116.8306
0.286101 553.19 116.2024
0.28638 536.26 116.79446
0.286658 572.34 116.90205
0.286937 609.88 116.66134
0.287215 349.86 115.98913
0.287494 515.36 116.1372
0.287772 386.35 116.59086
0.288051 570.56 116.29854
0.28833 550.47 116.46774
0.288608 490.24 116.02679
0.288887 741.93 115.72566
0.289165 488.58 116.27235
0.289444 724.83 115.97425
0.289722 391.33 115.35557
0.290001 572.54 116.12651
0.29028 582.4 115.76346
0.290558 824.89 117.08219
0.290837 624.11 115.33804
0.291115 395.38 114.89394
0.291394 540.69 115.407
0.291672 490.27 115.14815
0.291951 481.22 114.93967
0.29223 452.49 114.46713
0.292508 599.1 115.57094
0.292787 549.45 115.52685
0.293065 623.46 114.92419
0.293344 741.22 115.60276
0.293622 646.26 114.80924
0.293901 728.88 115.83179
0.29418 536.02 115.3299
0.294458 471.35 114.34557
0.294737 481.53 115.03512
0.295015 505.3 114.8547
0.295294 598.13 115.31095
0.295572 471.01 114.74932
0.295851 605.8 114.47717
0.29613 435.45 114.66472
0.296408 604.08 114.88016
0.296687 292.15 114.36246
0.296965 618.4 114.31306
0.297244 589.99 114.19419
0.297522 514.19 114.70038
0.297801 547.59 114.08364
0.29808 509.35 114.85832
0.298358 532.45 114.55213
0.298637 603.45 114.49623
0.298915 863.76 114.06277
0.299194 742.8 113.49778
0.299472 381.6 113.42118
0.299751 634.04 114.70974
0.30003 458.82 114.14113
0.300308 512.73 113.90167
0.300587 474.61 113.02721
0.300865 464.61 113.99046
0.301144 394.57 113.98699
0.301422 554.07 113.13177
0.301701 628.87 114.25636
0.30198 631.46 113.90394
0.302258 501.96 113.1872
0.302537 686.83 113.32195
0.302815 460.09 112.96447
0.303094 422.01 112.59578
0.303372 400.12 112.80732
0.303651 596.51 112.92273
0.30393 435.83 112.46626
0.304208 680.02 113.13
0.304487 525.29 112.06395
0.304765 445.47 112.99381
0.305044 613.06 111.86915
0.305322 654.23 112.76129
0.305601 615.62 112.54114
0.30588 358.86 111.69212
0.306158 677.97 112.91519
0.306437 527.05 112.21597
0.306715 599.41 113.46297
0.306994 353.43 111.8154
0.307272 444.47 112.26343
0.307551 274.52 111.45115
0.30783 384.19 111.62084
0.308108 412.27 112.14793
0.308387 459.65 112.13793
0.308665 515.91 112.7424
0.308944 64.94 111.62793
0.309222 587.59 112.26829
0.309501 618.42 112.3488
0.309779 451.01 112.43474
0.310058 711.9 112.63021
0.310337 480.57 112.10988
0.310615 504.79 111.92981
0.310894 620.99 112.16724
0.311172 543.23 112.02263
0.311451 452.31 112.28519
0.311729 477.43 111.59331
0.312008 495.28 111.49855
0.312287 573.19 112.05293
0.312565 650.35 111.77404
0.312844 529.13 112.08575
0.313122 385.26 111.50147
0.313401 505.61 111.59148
0.313679 528.2 111.27634
0.313958 457.53 111.17379
0.314237 501.41 112.34488
0.314515 568.67 113.98599
0.314794 347.34 114.17844
0.315072 235.57 114.60879
0.315351 513.95 115.11444
0.315629 719 116.44098
0.315908 255.59 116.18066
0.316187 605.64 117.41868
0.316465 471.5 116.76302
0.316744 726.89 118.33419
0.317022 532.34 118.27782
0.317301 521.73 117.82525
0.317579 648.69 118.47955
0.317858 496.13 118.05393
0.318137 322.32 119.82338
0.318415 555.03 119.02368
0.318694 392.64 119.60118
0.318972 433.19 120.05847
0.319251 370.5 120.24355
0.319529 466.79 120.90234
0.319808 516.98 120.2127
0.320087 602.09 122.08938
0.320365 483.68 121.51754
0.320644 323.9 121.57018
0.320922 317.52 119.95949
0.321201 319.91 117.7078
0.321479 444.91 118.51417
0.321758 576.46 117.70853
0.322037 400.08 117.34892
0.322315 536.95 117.06675
0.322594 409.01 116.07696
0.322872 464.14 116.64868
0.323151 566.21 116.39167
0.323429 336.87 115.15112
0.323708 203.49 115.34653
0.323987 423.85 115.14747
0.324265 488.16 114.96016
0.324544 602.4 115.83928
0.324822 354.01 115.23761
0.325101 257.31 114.48554
0.325379 444.52 114.70824
0.325658 264.88 114.09918
0.325937 461.53 114.77593
0.326215 423.65 113.88786
0.326494 376.35 113.69939
0.326772 397.96 114.01316
0.327051 390.91 113.75283
0.327329 414.93 113.73409
0.327608 560.95 113.50511
0.327887 531.96 113.35648
0.328165 313.65 113.04231
0.328444 482.28 112.94564
0.328722 446.31 113.48444
0.329001 438.87 112.83324
0.329279 361.15 112.46736
0.329558 384.34 112.90258
0.329837 483.67 112.23359
0.330115 443.48 112.88918
0.330394 420.48 112.39826
0.330672 483.14 112.52668
0.330951 463.89 112.72905
0.331229 402.45 111.77974
0.331508 308.46 112.17158
0.331787 647.3 112.20632
0.332065 344.62 111.29701
0.332344 352.98 111.56394
0.332622 425.05 111.14101
0.332901 443.92 112.57393
0.333179 458.86 111.22232
0.333458 528.99 111.64006
0.333737 161.95 111.01093
0.334015 293.82 111.1816
0.334294 278.15 112.33503
0.334572 447.19 111.13123
0.334851 517.42 111.13227
0.335129 420.27 111.45494
0.335408 541.81 111.15815
0.335687 440.09 111.57533
0.335965 509.59 111.32893
0.336244 287.85 111.09993
0.336522 560.84 111.87896
0.336801 266.65 110.07549
0.337079 362.85 110.42292
0.337358 462.76 111.36086
0.337637 444.78 111.35888
0.337915 429.75 111.03333
0.338194 339.73 110.27251
0.338472 535.93 110.57394
0.338751 493.39 110.72219
0.339029 375.85 110.40476
0.339308 352.73 110.43131
0.339587 487.65 110.28991
0.339865 534.87 110.56986
0.340144 502.49 109.76699
0.340422 475.76 109.95208
0.340701 599.62 110.30133
0.340979 480.61 110.30211
0.341258 456.15 110.29416
0.341537 489.23 109.44461
0.341815 413.86 109.53428
0.342094 244.91 109.84112
0.342372 332.71 109.7362
0.342651 533.98 109.65011
0.342929 337.85 109.26876
0.343208 379.52 109.62563
0.343487 336.97 109.54016
0.343765 641.22 109.68607
0.344044 457.75 108.79307
0.344322 665.31 109.84958
0.344601 317.71 108.77012
0.344879 499.95 109.26924
0.345158 599.27 109.05617
0.345436 549.31 109.06197
0.345715 438.33 109.25483
0.345994 464.81 108.39303
0.346272 416.63 108.76428
0.346551 309.56 108.23382
0.346829 134.83 107.92686
0.347108 517.64 108.56981
0.347386 317.16 107.72435
0.347665 561.43 108.62755
0.347944 450.86 108.53163
0.348222 417.38 108.32879
0.348501 480.47 109.28707
0.348779 396.95 108.28702
0.349058 417.03 108.61069
0.349336 357.82 108.79252
0.349615 348.99 107.89926
0.349894 508.2 108.75913
0.350172 491.59 108.16965
0.350451 451.07 109.12374
0.350729 286.76 107.92108
0.351008 351.7 107.99607
0.351286 388.45 108.68512
0.351565 324.96 107.64345
0.351844 445.06 108.12633
0.352122 413.63 108.33568
0.352401 252.6 107.77013
0.352679 340.15 108.05371
0.352958 627.34 108.45654
0.353236 405.54 108.41628
0.353515 387.01 108.17866
0.353794 515.86 108.49293
0.354072 367.1 108.3318
0.354351 522.62 108.30588
0.354629 197.6 107.55071
0.354908 570.96 108.91766
0.355186 253.81 107.7355
0.355465 485.64 108.74999
0.355744 401.65 108.47394
0.356022 428.22 107.35846
0.356301 453.77 108.61162
0.356579 331.03 107.60571
0.356858 315.7 108.11276
0.357136 493.07 108.64197
0.357415 466.73 107.60293
0.357694 440.07 109.00447
0.357972 386.29 107.97043
0.358251 467.7 108.81559
0.358529 598.54 108.75892
0.358808 446.65 107.86782
0.359086 408.02 108.09169
0.359365 681.59 108.03245
0.359644 570.47 108.7928
0.359922 476.21 108.36153
0.360201 424.64 107.76071
0.360479 430.74 108.42259
0.360758 649.49 108.0333
0.361036 481.26 108.12278
0.361315 466.21 107.91664
0.361594 513.13 108.68944
0.361872 359.81 108.24817
0.362151 539.54 108.22067
0.362429 582.41 107.82596
0.362708 412.34 108.25333
0.362986 529.94 108.23886
0.363265 504.42 108.15218
0.363544 411.62 107.62579
0.363822 318.8 107.53252
0.364101 383.76 107.32925
0.364379 385.09 107.21521
0.364658 545.2 108.56946
0.364936 420.57 107.231
0.365215 703.33 107.88704
0.365494 338.68 107.88691
0.365772 383.12 107.3594
0.366051 506.43 107.93224
0.366329 460.06 107.98218
0.366608 462.45 108.10918
0.366886 468.31 108.07858
0.367165 325.89 107.26241
0.367444 331.53 107.86132
0.367722 365.29 107.51914
0.368001 564.27 107.35254
0.368279 336.05 107.64548
0.368558 500.37 107.80886
0.368836 518.09 108.12228
0.369115 694.7 107.79115
0.369394 390.42 108.06913
0.369672 525.61 107.89228
0.369951 425.47 107.79657
0.370229 600.61 108.0967
0.370508 402.42 108.01766
0.370786 303.55 108.02116
0.371065 473.19 108.07696
0.371344 601.54 108.03811
0.371622 427.09 108.11756
0.371901 630.71 108.00434
0.372179 519.43 107.96875
0.372458 457.47 108.06593
0.372736 557.48 108.19763
0.373015 661.71 108.22731
0.373294 482.57 109.34592
0.373572 383.21 110.09909
0.373851 541.82 111.58937
0.374129 563.25 111.75643
0.374408 591.93 112.70894
0.374686 489.22 112.41265
0.374965 559.06 113.04692
0.375244 479.53 114.03519
0.375522 444.96 113.52654
0.375801 405.18 113.92211
0.376079 604.52 114.99181
0.376358 564.54 114.76191
0.376636 335.53 115.84341
0.376915 656.87 114.6705
0.377194 258.52 115.62835
0.377472 564.09 116.29492
0.377751 574.36 115.71283
0.378029 598.61 117.54579
0.378308 419.97 115.83002
0.378586 423.81 117.39632
0.378865 666.5 118.07798
0.379144 494.63 116.88229
0.379422 600.2 118.65943
0.379701 586.69 117.69415
0.379979 611.49 116.89218
0.380258 629.07 116.11595
0.380536 553.81 114.20476
0.380815 491.78 113.80764
0.381093 623.57 114.1727
0.381372 622.05 114.54135
0.381651 499.36 113.43367
0.381929 574.56 112.75279
0.382208 562.39 113.12401
0.382486 611.42 113.40991
0.382765 494.7 112.5958
0.383043 496.83 112.93494
0.383322 440.68 112.62106
0.383601 759.67 113.41499
0.383879 461.13 112.10708
0.384158 656.04 112.45049
0.384436 632.68 112.21861
0.384715 339.45 112.02708
0.384993 503.26 111.88937
0.385272 410.52 110.97152
0.385551 541.52 111.22496
0.385829 597.01 111.14812
0.386108 443.02 111.53957
0.386386 557.45 111.06902
0.386665 517.52 111.87643
0.386943 493 110.38644
0.387222 432.3 110.63367
0.387501 534.41 110.52742
0.387779 453.75 110.80651
0.388058 694.64 111.67262
0.388336 404.11 110.05156
0.388615 503.49 110.76195
0.388893 608.69 110.82807
0.389172 364.9 110.23985
0.389451 566.6 111.41049
0.389729 588.53 109.66768
0.390008 505.85 110.08751
0.390286 504.19 110.68938
0.390565 496.95 109.23544
0.390843 602.01 110.61148
0.391122 488.61 109.38465
0.391401 486.91 109.80304
0.391679 678.33 110.75718
0.391958 394.99 109.06821
0.392236 497.64 109.93361
0.392515 455.28 109.16856
0.392793 699.08 110.34435
0.393072 575.08 110.35154
0.393351 586.23 109.19367
0.393629 390.73 109.73031
0.393908 441.96 109.38242
0.394186 601.54 110.20657
0.394465 636.56 109.7811
0.394743 478.02 109.45517
0.395022 591.47 109.80242
0.395301 697.7 109.79561
0.395579 421.86 109.96215
0.395858 641.31 109.97045
0.396136 475.44 110.32166
0.396415 407.13 109.97832
0.396693 730.9 110.33191
0.396972 471.23 109.94853
0.397251 625.23 110.11685
0.397529 521.95 110.0388
0.397808 392.26 110.21692
0.398086 600.69 110.07712
0.398365 709.25 110.72121
0.398643 506.99 109.81311
0.398922 769.04 110.16895
0.399201 661.12 110.58279
0.399479 472.67 110.10885
0.399758 550.87 110.32351
0.400036 581.15 110.77319
0.400315 510.89 110.30911
0.400593 528.64 110.24173
0.400872 374.33 110.15251
0.401151 616.86 110.44957
0.401429 418.97 110.11765
0.401708 423.81 110.35355
0.401986 510.83 110.82783
0.402265 379.86 109.93407
0.402543 520.4 110.09038
0.402822 411.43 109.93806
0.403101 586.29 110.30439
0.403379 570.32 110.46431
0.403658 623.04 111.24897
0.403936 511.47 109.61912
0.404215 563.61 111.08963
0.404493 477.26 110.12646
0.404772 404.08 110.09701
0.405051 525.62 111.10907
0.405329 397.09 109.44391
0.405608 455.35 111.0085
0.405886 487.2 109.98228
0.406165 409.08 110.54652
0.406443 376.47 109.84374
0.406722 467.07 110.1341
0.407001 481.76 110.85118
0.407279 637.57 110.8426
0.407558 493.67 110.77599
0.407836 511.82 110.56108
0.408115 520.14 109.7166
0.408393 458.92 110.52558
0.408672 429.29 109.83841
0.408951 506.05 110.63036
0.409229 287.53 110.44005
0.409508 421.03 109.86895
0.409786 543.35 110.49127
0.410065 473.02 109.69498
0.410343 547.98 110.61573
0.410622 517.37 110.50595
0.410901 552.48 109.72088
0.411179 451.12 110.24438
0.411458 512.09 110.00371
0.411736 745.67 110.31377
0.412015 533.92 110.54209
0.412293 520.51 110.31355
0.412572 480.5 110.69518
0.412851 636.09 110.57282
0.413129 569.32 109.7888
0.413408 317.52 109.69527
0.413686 424.32 110.02365
0.413965 534.41 110.2942
0.414243 638.79 111.03082
0.414522 635.56 109.83667
0.414801 519.67 110.51823
0.415079 677.2 109.93698
0.415358 649.96 110.6063
0.415636 584.11 110.41448
0.415915 532.37 109.91474
0.416193 677.93 110.15585
0.416472 607.76 109.90401
0.416751 284.6 108.87053
0.417029 615.22 110.66813
0.417308 571.31 109.38496
0.417586 564.52 109.63817
0.417865 586.4 110.14043
0.418143 498.85 109.27142
0.418422 367.48 109.802
0.4187 375.77 108.91128
0.418979 429.4 109.49204
0.419258 402.55 109.7197
0.419536 572.13 109.42321
0.419815 381.03 109.30021
0.420093 773.32 110.27493
0.420372 402.89 109.38834
0.42065 524.25 109.9538
0.420929 524.85 109.2538
0.421208 650.18 110.09869
0.421486 312.11 109.54153
0.421765 569.15 110.36584
0.422043 671.29 110.39513
0.422322 555.73 110.63756
0.4226 450.37 110.80074
0.422879 620.58 110.17248
0.423158 484.03 110.3964
0.423436 626.8 110.07774
0.423715 518.07 110.29728
0.423993 682.41 110.54113
0.424272 530.79 110.18591
0.42455 799.08 110.64294
0.424829 593.13 110.13275
0.425108 691.87 110.28451
0.425386 510.8 110.62573
0.425665 593.67 110.47215
0.425943 475.8 110.20342
0.426222 446.5 110.28058
0.4265 541.03 109.88996
0.426779 550.66 110.89224
0.427058 479.02 110.26785
0.427336 776.49 111.06995
0.427615 444.96 110.63248
0.427893 470.78 110.18738
0.428172 437.83 109.85603
0.42845 370.59 110.42518
0.428729 596.23 110.06032
0.429008 620.67 110.86715
0.429286 609.74 110.41789
0.429565 469.87 110.34621
0.429843 547.74 110.04546
0.430122 291.45 110.04259
0.4304 698.04 111.06726
0.430679 780.38 111.06582
0.430958 498.37 110.92372
0.431236 631.77 110.5336
0.431515 642.9 110.50207
0.431793 447.33 110.6039
0.432072 632.84 110.66053
0.43235 584.68 112.1065
0.432629 627.05 114.00267
0.432908 527.89 114.21128
0.433186 779.36 116.64306
0.433465 703.04 116.03387
0.433743 394.86 116.38447
0.434022 807.55 117.52064
0.4343 685.82 117.705
0.434579 357.29 118.16875
0.434858 655.26 117.82605
0.435136 773.74 119.88017
0.435415 473.5 119.17116
0.435693 510.75 119.79747
0.435972 625.47 121.25466
0.43625 499.5 120.53785
0.436529 588.58 121.60763
0.436808 620.69 122.0117
0.437086 564.77 121.54917
0.437365 615.21 122.99499
0.437643 667.84 122.49967
0.437922 613.53 123.67042
0.4382 762.14 124.03561
0.438479 710.69 124.49073
0.438758 542.16 124.73626
0.439036 407.78 121.32241
0.439315 523.77 120.22374
0.439593 412.38 119.8275
0.439872 448.73 119.59646
0.44015 384.47 118.88837
0.440429 500.16 118.05326
0.440708 424.6 117.32665
0.440986 464.34 117.91859
0.441265 658.01 118.0643
0.441543 579.3 117.81214
0.441822 753.75 118.59862
0.4421 255.5 117.12281
0.442379 345.63 116.55084
0.442658 439.73 116.69847
0.442936 839.64 117.15148
0.443215 597.94 117.48251
0.443493 502.41 116.41942
0.443772 542.34 116.45061
0.44405 620.91 116.30824
0.444329 777.01 116.88322
0.444608 385.61 116.17295
0.444886 472.63 116.22831
0.445165 483.81 115.66865
0.445443 448.76 115.9738
0.445722 477.76 115.93471
0.446 440.58 116.6874
0.446279 649.1 116.41829
0.446558 640.31 115.6681
0.446836 507.8 116.19256
0.447115 603.2 115.24217
0.447393 557.04 115.34414
0.447672 799.19 115.54226
0.44795 425.88 114.80601
0.448229 556.99 114.8895
0.448508 560.9 114.63073
0.448786 533.84 114.45688
0.449065 518.82 115.00845
0.449343 718.7 114.42086
0.449622 600.87 115.18843
0.4499 428.21 114.35101
0.450179 402.35 114.84161
0.450458 519.6 114.23214
0.450736 616.93 114.78091
0.451015 533.54 114.16791
0.451293 609.87 114.49316
0.451572 594.76 114.37817
0.45185 632.84 114.31219
0.452129 577.61 114.21073
0.452408 483.4 113.70214
0.452686 559.12 114.56761
0.452965 496.9 113.7455
0.453243 665.37 114.85265
0.453522 417.19 114.30602
0.4538 565.32 114.19908
0.454079 442.86 114.07594
0.454357 721.55 113.78012
0.454636 489.65 114.26354
0.454915 335.41 114.23531
0.455193 653.24 113.54354
0.455472 610.47 114.50329
0.45575 573.78 113.61562
0.456029 736.23 114.36696
0.456307 604.53 114.50573
0.456586 551.88 113.48782
0.456865 661.14 114.44239
0.457143 397.61 113.55541
0.457422 470.94 114.09887
0.4577 250.67 113.13816
0.457979 617.4 113.80926
0.458257 460.36 113.46564
0.458536 802.88 114.64354
0.458815 472.63 114.08245
0.459093 534.53 114.02495
0.459372 608.05 113.96397
0.45965 645.28 114.07928
0.459929 541.66 113.59919
0.460207 580.77 114.72464
0.460486 733.16 113.69588
0.460765 727.13 114.25544
0.461043 653.59 113.84468
0.461322 420.68 113.34359
0.4616 668.39 113.91309
0.461879 695.28 113.69118
0.462157 658.26 114.53831
0.462436 480.19 113.51982
0.462715 487.98 113.37839
0.462993 304.34 113.26957
0.463272 684.24 113.54005
0.46355 473.79 113.97692
0.463829 548.34 114.06167
0.464107 291.38 113.56827
0.464386 676.39 114.54078
0.464665 467.43 112.36251
0.464943 569.1 114.41786
0.465222 545.4 112.87957
0.4655 583.25 114.35374
0.465779 365.84 113.65724
0.466057 535.97 113.09793
0.466336 599.87 114.02617
0.466615 556.79 113.66918
0.466893 503.96 114.77038
0.467172 504.3 113.25317
0.46745 604.83 113.08717
0.467729 550.88 113.88736
0.468007 714.13 113.81911
0.468286 713.21 113.98565
0.468565 705.75 113.53768
0.468843 564.11 113.91943
0.469122 651.78 113.59061
0.4694 776.84 113.40153
0.469679 525.65 113.76196
0.469957 552.9 112.66929
0.470236 625.77 113.70458
0.470515 727.13 113.58939
0.470793 604.55 113.14378
0.471072 678.75 113.7851
0.47135 561.38 112.62963
0.471629 808.47 114.04314
0.471907 483.83 113.18374
0.472186 594.18 113.70226
0.472465 636.54 113.62399
0.472743 480.81 113.68558
0.473022 487.11 112.95863
0.4733 656.23 113.0889
0.473579 637.35 113.51423
0.473857 712.71 113.53187
0.474136 565.76 113.27752
0.474415 615.17 114.08547
0.474693 385.87 112.96029
0.474972 604.64 114.31649
0.47525 672.87 113.86159
0.475529 421.05 113.57299
0.475807 753.14 114.42957
0.476086 342.03 112.41205
0.476365 677.67 114.37409
0.476643 437.3 113.03562
0.476922 489.62 114.30166
0.4772 350.39 113.98906
0.477479 655.09 113.78247
0.477757 429.08 113.97274
0.478036 471.86 113.19731
0.478315 590.83 114.41776
0.478593 514.29 113.5164
0.478872 741.79 115.01402
0.47915 595.5 114.15873
0.479429 709.41 113.25522
0.479707 616.52 115.06479
0.479986 462.32 113.63314
0.480265 494.35 113.58718
0.480543 513.3 113.60817
0.480822 562.8 113.67999
0.4811 834.41 114.83048
0.481379 714.16 113.82945
0.481657 643.45 113.6083
0.481936 686.98 114.6373
0.482215 785.95 114.47638
0.482493 747.25 114.39915
0.482772 614.59 114.25308
0.48305 643.95 114.3759
0.483329 530.81 114.09244
0.483607 735.53 113.80495
0.483886 474.45 114.34703
0.484165 527.58 113.38916
0.484443 463.56 113.69629
0.484722 730.13 113.47214
0.485 869.22 113.74779
0.485279 621.62 113.60604
0.485557 562.08 113.62988
0.485836 671.08 113.90366
0.486115 537.72 113.11908
0.486393 541.09 112.95108
0.486672 734.58 113.68498
0.48695 329.18 112.70371
0.487229 768.11 114.19748
0.487507 457.01 112.99091
0.487786 493.17 113.61312
0.488065 770.45 113.24928
0.488343 598.01 113.72695
0.488622 693.67 113.89993
0.4889 569.76 112.99671
0.489179 758.84 113.66851
0.489457 678.54 113.22942
0.489736 795.93 114.32102
0.490014 698.57 113.35265
0.490293 570.72 113.82254
0.490572 577.8 113.8028
0.49085 539.38 112.28145
0.491129 783.41 114.00491
0.491407 668.12 114.19035
0.491686 540.73 116.67097
0.491964 544.08 117.5992
0.492243 713.36 117.40296
0.492522 562.5 119.58771
0.4928 707.94 120.01621
0.493079 692.62 119.98415
0.493357 479.84 120.37866
0.493636 682.6 120.63681
0.493914 583.56 121.8857
0.494193 773.32 121.49415
0.494472 653.34 122.52681
0.49475 590.38 123.2311
0.495029 551.94 122.29564
0.495307 625.56 123.82595
0.495586 735.25 123.69555
0.495864 493.53 124.85972
0.496143 625.39 125.50992
0.496422 604.18 126.31965
0.4967 701.65 126.73149
0.496979 800.79 126.74185
0.497257 515.4 127.71253
0.497536 511.65 128.0613
0.497814 683.55 127.93037
0.498093 689.7 126.35835
0.498372 686.08 124.50012
0.49865 341.7 123.74788
0.498929 685.17 122.31973
0.499207 410.82 121.45984
0.499486 592.13 121.3577
0.499764 468.72 120.64187
0.500043 425.91 121.29673
0.500322 541.17 121.58769
0.5006 607.54 119.9764
0.500879 499.83 119.83556
0.501157 464.14 120.15453
0.501436 602.89 119.63027
0.501714 313.37 119.75622
0.501993 674.2 120.17632
0.502272 535.95 118.94031
0.50255 570.39 120.07283
0.502829 626.28 118.74188
0.503107 537.22 119.20053
0.503386 648.69 120.16546
0.503664 564.31 118.3142
0.503943 590.12 119.24429
0.504222 612.04 117.77848
0.5045 594.04 119.58932
0.504779 677.34 118.7191
0.505057 720.41 118.66728
0.505336 620.36 118.39953
0.505614 772.82 118.37688
0.505893 723.2 118.76963
0.506172 603.07 118.24434
0.50645 747.8 118.92068
0.506729 518.15 118.42769
0.507007 529.13 118.2797
0.507286 650.13 118.51406
0.507564 701.2 118.46421
0.507843 857.65 119.25275
0.508122 551.55 118.27723
0.5084 806.92 118.17611
0.508679 623.02 118.51312
0.508957 490.32 117.66223
0.509236 710.9 118.74919
0.509514 483.66 117.75189
0.509793 549.63 117.21293
0.510072 712.7 118.32212
0.51035 639.86 117.46571
0.510629 608.18 118.36916
0.510907 527.04 117.28332
0.511186 365.13 117.18625
0.511464 573.89 118.59893
0.511743 729.08 118.0307
0.512022 670.91 118.38336
0.5123 594.04 117.28796
0.512579 396.35 117.80439
0.512857 749.24 118.06559
0.513136 642.22 117.38747
0.513414 817.5 118.39671
0.513693 638.25 117.8634
0.513972 697.97 118.37999
0.51425 654.61 117.42793
0.514529 542.16 117.92176
0.514807 597.27 117.92997
0.515086 722.84 118.12426
0.515364 648.26 117.50426
0.515643 610.48 117.11942
0.515922 411.64 117.31814
0.5162 485.29 117.21185
0.516479 451.47 117.57445
0.516757 423.49 116.9009
0.517036 706.37 117.83615
0.517314 527.22 117.68831
0.517593 671.93 117.49627
0.517872 430.89 116.84452
0.51815 468.49 117.71115
0.518429 703.84 117.17666
0.518707 620.67 117.56048
0.518986 710.21 117.29495
0.519264 665.11 117.9991
0.519543 597.12 116.88519
0.519822 364.97 117.29887
0.5201 712.54 117.47949
0.520379 447.05 116.53793
0.520657 569 117.36516
0.520936 480.57 116.97786
0.521214 661.26 116.95522
0.521493 600.49 117.01203
0.521772 610.27 116.96194
0.52205 535.38 117.44909
0.522329 630.01 117.15531
0.522607 906.01 117.44661
0.522886 369.48 116.81251
0.523164 769.83 117.21354
0.523443 555.42 117.45315
0.523722 784.17 116.84316
0.524 479.66 117.05646
0.524279 619.83 116.62439
0.524557 559.99 116.13824
0.524836 576.42 115.91395
0.525114 677.45 116.43155
0.525393 494.75 116.21343
0.525671 382.36 116.47242
0.52595 723.3 116.45312
0.526229 425.37 115.85192
0.526507 427.5 115.62339
0.526786 640.11 116.36475
0.527064 711.72 116.3656
0.527343 606.27 116.35687
0.527621 667.66 116.35056
0.5279 484.88 116.68551
0.528179 552.81 115.49666
0.528457 531.4 115.80442
0.528736 692.94 116.08665
0.529014 635.55 116.10741
0.529293 680.98 116.27854
0.529571 561.93 115.82202
0.52985 522.11 116.23557
0.530129 613.84 116.07861
0.530407 713.8 116.52117
0.530686 587.6 116.63086
0.530964 689.12 116.64044
0.531243 746.27 116.36479
0.531521 485.75 115.98993
0.5318 483.04 115.91772
0.532079 720.17 116.76739
0.532357 695.4 116.37522
0.532636 754.58 116.07787
0.532914 550.88 116.41701
0.533193 595.64 116.1565
0.533471 413.68 115.80939
0.53375 372.89 116.04319
0.534029 537.11 116.40267
0.534307 695.47 116.92413
0.534586 587.1 116.32596
0.534864 646.92 116.75953
0.535143 626.53 116.22211
0.535421 537.28 116.30824
0.5357 581.41 116.70642
0.535979 378.48 116.12669
0.536257 592.36 116.28031
0.536536 759.73 117.37507
0.536814 620.02 116.06743
0.537093 634.04 116.28179
0.537371 518.43 116.14738
0.53765 731.77 116.78851
0.537929 387.77 115.69841
0.538207 640.46 116.00428
0.538486 585.24 115.76244
0.538764 446.66 115.72601
0.539043 768.34 115.71943
0.539321 572.28 116.1041
0.5396 702.82 115.90224
0.539879 679.56 116.53051
0.540157 568.66 115.50674
0.540436 617.84 116.00638
0.540714 679.89 116.29436
0.540993 528.22 114.93834
0.541271 463.6 115.75517
0.54155 555.55 115.05169
0.541829 411.86 115.14903
0.542107 848.16 115.5456
0.542386 816.07 115.69627
0.542664 679.36 115.73836
0.542943 629.9 115.07356
0.543221 662.67 115.73937
0.5435 602.02 115.68395
0.543779 796.36 114.77474
0.544057 473.52 114.68728
0.544336 449.7 114.2453
0.544614 593.16 115.16218
0.544893 616.66 115.03598
0.545171 697.09 115.07986
0.54545 602.94 115.57834
0.545729 496.91 114.58925
0.546007 633.19 115.34596
0.546286 568.02 114.92491
0.546564 611.54 114.89371
0.546843 396.31 115.03064
0.547121 482.81 114.85508
0.5474 449.4 115.43632
0.547679 625.37 115.75424
0.547957 575.39 114.74068
0.548236 590.89 115.39271
0.548514 449.58 114.5565
0.548793 688.8 115.48022
0.549071 798.13 115.83506
0.54935 483.54 115.41747
0.549629 601.79 115.65173
0.549907 822.23 116.16805
0.550186 516.6 115.44761
0.550464 594.41 117.46343
0.550743 697.69 119.4976
0.551021 514.54 120.40826
0.5513 674.62 121.45567
0.551579 874.46 123.19652
0.551857 617.11 123.65899
0.552136 520.28 123.31713
0.552414 662.36 124.45106
0.552693 694.98 125.5373
0.552971 699.03 125.73729
0.55325 573.62 125.89666
0.553529 442.78 126.68266
0.553807 592.83 127.87405
0.554086 564.03 127.26563
0.554364 630.95 128.67045
0.554643 679.87 129.14114
0.554921 635.2 128.95299
0.5552 648.94 130.59024
0.555479 467.42 131.03488
0.555757 639.51 130.87106
0.556036 927.68 132.29275
0.556314 671.55 132.81808
0.556593 542.03 133.1152
0.556871 677.04 132.57622
0.55715 566.79 129.68086
0.557429 448.83 128.70049
0.557707 593.51 127.67798
0.557986 415.95 126.24482
0.558264 551.43 126.68105
0.558543 738.37 124.68267
0.558821 579.06 125.73407
0.5591 631.89 124.5859
0.559379 715.14 125.03053
0.559657 405.65 124.03497
0.559936 396.5 123.84827
0.560214 605.56 123.80424
0.560493 715.61 123.68483
0.560771 597.57 123.45592
0.56105 666.37 123.3211
0.561329 680.13 123.67541
0.561607 480.4 122.58761
0.561886 678.69 122.96097
0.562164 699.15 122.90675
0.562443 731.07 122.78917
0.562721 578.06 122.41457
0.563 488.73 122.20741
0.563278 644.74 121.98882
0.563557 575.87 122.00988
0.563836 476.91 121.73121
0.564114 573.53 121.92802
0.564393 675.28 121.4468
0.564671 438.49 121.56599
0.56495 500.79 122.00144
0.565228 575.55 122.1256
0.565507 629.39 122.00369
0.565786 856.33 122.79718
0.566064 664.49 122.25646
0.566343 454.48 121.40962
0.566621 679.52 121.17565
0.5669 602.82 121.68966
0.567178 579.34 121.79099
0.567457 413.49 121.37657
0.567736 604.8 120.70472
0.568014 679.35 121.52484
0.568293 486.05 121.03632
0.568571 573.69 120.56754
0.56885 550.42 121.40877
0.569128 518.55 120.15956
0.569407 624.18 120.33577
0.569686 513.14 120.51374
0.569964 593.45 120.48705
0.570243 536.82 120.16711
0.570521 693.95 120.82792
0.5708 607.36 120.84169
0.571078 903.63 120.88141
0.571357 645.96 119.59653
0.571636 708.55 120.65577
0.571914 872.31 120.58205
0.572193 494.9 119.40841
0.572471 845.37 120.43713
0.57275 662.15 120.04029
0.573028 545.56 119.75877
0.573307 549.7 119.5209
0.573586 394.33 119.2734
0.573864 487.21 119.54684
0.574143 674.12 119.73411
0.574421 487.17 119.50138
0.5747 599.34 119.81475
0.574978 694.25 119.36139
0.575257 429.95 120.47618
0.575536 478.39 119.18401
0.575814 683.88 119.88001
0.576093 387.04 119.40261
0.576371 535.85 119.76719
0.57665 534.13 119.99287
0.576928 658.74 119.71509
0.577207 496.33 119.37912
0.577486 595.6 119.22151
0.577764 558.15 119.37314
0.578043 684.73 119.60203
0.578321 755.41 119.64174
0.5786 272.9 118.65721
0.578878 628.69 119.40859
0.579157 542.29 119.25975
0.579436 451.5 118.99901
0.579714 503.7 118.5844
0.579993 533.66 119.15748
0.580271 556.78 119.51601
0.58055 511.65 118.36371
0.580828 427.9 118.78585
0.581107 643.33 118.20851
0.581386 597.42 119.17006
0.581664 479.96 118.52991
0.581943 551.88 118.79243
0.582221 601 118.78307
0.5825 580.3 118.43761
0.582778 426.11 118.7743
0.583057 777.96 118.75365
0.583336 796.18 119.02836
0.583614 567.23 118.92998
0.583893 500.03 118.97578
0.584171 462 118.1008
0.58445 349.19 118.09384
0.584728 621.56 118.98762
0.585007 534.56 118.64152
0.585286 593.59 118.83873
0.585564 397.4 118.29252
0.585843 588.67 118.93743
0.586121 462.05 118.22165
0.5864 684.56 119.78491
0.586678 572.16 118.7998
0.586957 739.58 119.07603
0.587236 420.31 118.54534
0.587514 445.31 118.39188
0.587793 428.71 118.20338
0.588071 581.57 118.37225
0.58835 558.49 118.47384
0.588628 536.14 118.22436
0.588907 433.36 117.91283
0.589186 687.72 118.54591
0.589464 511.51 118.46957
0.589743 530.91 117.93852
0.590021 547.93 117.97051
0.5903 551.48 117.40417
0.590578 517.06 118.07524
0.590857 734.99 118.03738
0.591136 377.27 117.44076
0.591414 593.74 118.14086
0.591693 437.36 117.60168
0.591971 486.67 117.86459
0.59225 526.49 118.3341
0.592528 507.48 117.60131
0.592807 748.4 118.13474
0.593086 527.83 118.50675
0.593364 445.3 118.20641
0.593643 535.84 118.06882
0.593921 601.57 117.78538
0.5942 757.71 118.64647
0.594478 573.42 117.79579
0.594757 531.03 117.53287
0.595036 648.4 117.85328
0.595314 651.92 118.22592
0.595593 632.77 118.29671
0.595871 609.55 118.22174
0.59615 438.09 117.65651
0.596428 621.57 118.63891
0.596707 505.65 117.96649
0.596986 498.62 117.28579
0.597264 478.21 117.2406
0.597543 512.67 117.4153
0.597821 676.91 118.12973
0.5981 378.29 117.35433
0.598378 474.45 117.52717
0.598657 432.13 117.11471
0.598935 519.9 117.46606
0.599214 663.57 117.61086
0.599493 538.71 117.39368
0.599771 762.44 117.74295
0.60005 782.74 118.24927
0.600328 703.76 118.03089
0.600607 369.51 117.54986
0.600885 584.9 117.30718
0.601164 584.64 117.86758
0.601443 442.18 117.50145
0.601721 703.95 117.50428
0.602 312.89 116.72677
0.602278 703.7 117.96304
0.602557 533.77 117.57496
0.602835 661.04 117.71295
0.603114 483.45 117.83228
0.603393 676.69 118.23763
0.603671 593.65 118.25189
0.60395 584.03 117.44851
0.604228 527.42 118.12814
0.604507 555.18 117.70567
0.604785 644.8 118.11034
0.605064 572.14 118.29033
0.605343 749.32 118.12402
0.605621 533.39 118.08148
0.6059 624.41 117.78353
0.606178 353.41 118.09311
0.606457 580.3 117.78373
0.606735 566.19 117.53683
0.607014 795.02 118.49233
0.607293 480.43 118.33501
0.607571 598.33 118.21236
0.60785 408.61 118.09924
0.608128 836.13 118.20858
0.608407 594.39 118.0649
0.608685 715.3 118.64466
0.608964 539.83 118.04704
0.609243 490.9 118.05403
0.609521 639.73 120.65214
0.6098 662.54 122.33659
0.610078 577.72 123.59475
0.610357 405.93 124.1832
0.610635 450.89 125.69479
0.610914 453.69 126.56964
0.611193 377.73 126.70794
0.611471 699.88 127.77255
0.61175 505.38 128.32008
0.612028 567.34 129.45391
0.612307 607.16 130.17719
0.612585 744.09 131.14964
0.612864 501.83 130.8681
0.613143 450.97 131.97207
0.613421 516.23 131.4982
0.6137 334.95 132.41013
0.613978 510.33 133.13692
0.614257 551.04 133.46822
0.614535 627.94 134.85088
0.614814 430.91 134.62733
0.615093 375.3 134.5495
0.615371 669.62 136.28656
0.61565 531.77 136.24581
0.615928 497.38 136.24158
0.616207 500.2 133.98192
0.616485 624 131.71687
0.616764 607.4 130.54245
0.617043 662.7 130.12607
0.617321 147.59 127.70019
0.6176 650.34 128.44714
0.617878 667.45 127.079
0.618157 479.46 127.26844
0.618435 809.93 126.95194
0.618714 655.84 127.24714
0.618993 668.76 126.77613
0.619271 509.17 125.22785
0.61955 479.59 125.59736
0.619828 389.79 125.686
0.620107 432.75 125.66229
0.620385 595.33 125.64305
0.620664 758.46 125.80645
0.620943 531.32 124.90572
0.621221 541.96 124.21453
0.6215 399.95 125.54515
0.621778 558.42 125.27255
0.622057 342.06 122.93046
0.622335 685.75 125.07394
0.622614 621.6 124.00178
0.622893 626.08 123.76232
0.623171 480.57 124.28606
0.62345 575.68 124.00618
0.623728 353.75 124.54341
0.624007 544.42 124.85865
0.624285 676.34 124.12121
0.624564 614.6 124.24422
0.624843 242.22 123.98725
0.625121 475.97 123.27439
0.6254 683.46 123.60832
0.625678 606.8 123.06863
0.625957 831.19 124.33758
0.626235 552.72 124.21361
0.626514 529.76 122.90402
0.626793 586.34 123.98744
0.627071 689.74 123.71847
0.62735 512.77 124.11791
0.627628 397.09 122.84087
0.627907 727.94 123.78694
0.628185 677.23 124.34982
0.628464 480.85 123.33132
0.628743 641.22 123.12442
0.629021 683.49 123.67612
0.6293 462.09 122.68264
0.629578 556.21 123.38318
0.629857 633.1 123.48243
0.630135 569.03 123.1518
0.630414 622.61 122.77325
0.630693 649.31 123.04626
0.630971 458.55 122.52202
0.63125 342.71 122.54148
0.631528 215.41 122.33536
0.631807 699.22 123.29339
0.632085 688.96 122.75527
0.632364 446.25 122.5921
0.632643 573.5 122.91821
0.632921 457.71 122.50719
0.6332 487.62 122.74516
0.633478 673.3 122.54527
0.633757 369.43 122.35683
0.634035 399.62 122.13425
0.634314 503.79 122.40675
0.634592 557.35 122.34763
0.634871 610.4 122.42546
0.63515 565.06 122.10485
0.635428 285.65 122.40374
0.635707 405.64 121.87309
0.635985 597.15 122.47241
0.636264 589.5 122.13739
0.636542 639.06 121.93749
0.636821 733.69 122.33699
0.6371 505.22 120.92934
0.637378 467.98 121.29643
0.637657 357.7 121.52044
0.637935 620.34 121.83511
0.638214 686.71 121.39957
0.638492 380.69 120.78316
0.638771 573.88 121.43
0.63905 650.2 121.59329
0.639328 390.29 120.95472
0.639607 637.47 121.75495
0.639885 721.43 121.23322
0.640164 639.89 120.42461
0.640442 461.75 120.85437
0.640721 366.54 120.08474
0.641 316.95 120.2462
0.641278 928.52 122.11272
0.641557 522.67 120.85371
0.641835 540.99 119.92695
0.642114 451.9 120.249
0.642392 439.29 120.49577
0.642671 618.67 120.98756
0.64295 402.21 120.9367
0.643228 645.33 121.26921
0.643507 541.31 120.51454
0.643785 670.34 120.97052
0.644064 732.85 121.12712
0.644342 609.65 120.97395
0.644621 546.93 120.19944
0.6449 572.62 120.84682
0.645178 573.86 121.30616
0.645457 311.76 120.49811
0.645735 446.83 120.27333
0.646014 496.51 120.79052
0.646292 657.94 121.40321
0.646571 415.03 119.77355
0.64685 762.27 120.93312
0.647128 419.08 121.10677
0.647407 412.84 120.78346
0.647685 465.37 120.80387
0.647964 524.41 121.07122
0.648242 494.26 120.17331
0.648521 540.83 121.44072
0.6488 433.59 120.68042
0.649078 520.26 120.6696
0.649357 446.31 120.95009
0.649635 629.63 121.37696
0.649914 656.9 121.40212
0.650192 487.68 120.78099
0.650471 467.04 120.3761
0.65075 586.49 121.10858
0.651028 543.85 120.92253
0.651307 469.7 120.74124
0.651585 679.19 121.24592
0.651864 753.5 120.82137
0.652142 684.31 121.10653
0.652421 600.43 119.94145
0.6527 553.94 120.49105
0.652978 421.9 120.25501
0.653257 298.29 119.90097
0.653535 527.53 120.35263
0.653814 704.19 120.35666
0.654092 527.14 119.97558
0.654371 351.39 120.65494
0.65465 444.92 119.4796
0.654928 497.58 120.29299
0.655207 437.41 120.0475
0.655485 438.9 120.6753
0.655764 719.32 121.29266
0.656042 302.73 119.56742
0.656321 437 120.4988
0.6566 501.74 120.25684
0.656878 535.31 120.29103
0.657157 636.98 121.07089
0.657435 596.63 120.05128
0.657714 591.51 120.65926
0.657992 355.56 120.71899
0.658271 418.37 119.81617
0.65855 317.28 120.82491
0.658828 411.14 120.431
0.659107 627.64 121.31544
0.659385 627.53 121.23095
0.659664 430.28 120.64598
0.659942 527.84 120.98421
0.660221 551.49 121.1275
0.6605 611.23 120.84749
0.660778 374.55 120.79728
0.661057 402.75 120.66208
0.661335 424.9 120.52384
0.661614 904.52 121.70275
0.661892 620.75 120.64455
0.662171 476.29 120.3645
0.66245 482.66 120.54995
0.662728 690.82 121.18565
0.663007 479.86 120.15737
0.663285 612.69 120.56344
0.663564 242.7 118.98058
0.663842 362.05 120.534
0.664121 242 119.99862
0.6644 667.79 121.16207
0.664678 594.67 119.98439
0.664957 430.78 119.80767
0.665235 496.27 119.93753
0.665514 472.08 119.76041
0.665792 483.83 120.21475
0.666071 550.09 119.47855
0.66635 442.38 119.88664
0.666628 412.44 119.82756
0.666907 502.39 119.85376
0.667185 478.27 119.83341
0.667464 774.88 120.15711
0.667742 536.47 119.38446
0.668021 496.58 120.01991
0.6683 331.2 119.0138
0.668578 369.86 122.63565
0.668857 470.19 124.42984
0.669135 572.22 125.53831
0.669414 727.73 127.26262
0.669692 355.28 128.54303
0.669971 461.33 128.241
0.67025 714.29 129.56651
0.670528 568.04 129.98044
0.670807 160.52 130.73171
0.671085 695.91 132.12846
0.671364 564.28 132.63736
0.671642 684.19 133.95113
0.671921 524.72 133.66139
0.672199 649.06 135.98224
0.672478 588.37 135.4587
0.672757 342.66 136.33542
0.673035 763.61 137.47023
0.673314 488.95 137.80564
0.673592 635.58 138.29043
0.673871 616.9 139.33248
0.674149 347.25 138.83048
0.674428 572.74 141.26007
0.674707 545.28 141.04681
0.674985 547.2 141.28986
0.675264 487.39 141.39178
0.675542 561.34 142.90673
0.675821 733.27 143.42385
0.676099 255.96 143.17607
0.676378 326.53 142.70793
0.676657 334.33 145.08554
0.676935 534.91 145.84404
0.677214 306.66 145.35177
0.677492 541.77 146.71347
0.677771 743.7 148.04368
0.678049 487.47 149.4526
0.678328 630.08 149.34374
0.678607 600.87 149.4562
0.678885 384.06 149.32796
0.679164 326.08 149.94533
0.679442 790.01 151.08972
0.679721 194.83 152.4281
0.679999 441.62 152.16114
0.680278 374.71 153.01346
0.680557 759.9 154.32985
0.680835 344.9 154.17762
0.681114 70.93 154.83978
0.681392 649.49 155.51532
0.681671 619.34 156.86977
0.681949 438.63 157.33472
0.682228 541.12 156.89352
0.682507 355.61 157.34051
0.682785 707.69 157.99466
0.683064 534.17 158.50807
0.683342 333.23 159.09183
0.683621 669.35 159.47268
0.683899 290.69 160.01595
0.684178 696.79 160.35362
0.684457 254.31 159.77445
0.684735 547.8 161.62963
0.685014 611.8 161.69629
0.685292 522.68 162.40533
0.685571 528.1 163.33431
0.685849 208.91 163.02688
0.686128 341.82 163.23431
0.686407 546.7 164.46932
0.686685 495.53 166.15546
0.686964 632.02 168.27956
0.687242 564.38 166.55796
0.687521 528.55 167.77461
0.687799 671.67 170.03045
0.688078 498.9 168.63634
0.688357 654.35 170.53306
0.688635 560.26 171.09375
0.688914 484.71 172.56117
0.689192 289.26 172.18293
0.689471 660.73 171.92566
0.689749 677.17 174.73553
0.690028 556.75 174.79375
0.690307 865.62 176.59278
0.690585 542.84 175.48653
0.690864 548.6 178.44984
0.691142 359.75 178.60659
0.691421 200.94 177.10037
0.691699 618.23 179.50577
0.691978 171.57 180.03515
0.692257 399.97 181.34343
0.692535 590.3 182.71111
0.692814 436.64 182.49591
0.693092 509.78 180.00035
0.693371 532.43 183.70035
0.693649 508.47 184.06001
0.693928 288.41 185.6587
0.694207 493.15 184.89495
0.694485 300.51 185.81709
0.694764 169.96 186.85452
0.695042 481.84 188.58295
0.695321 731.06 189.5459
0.695599 438.52 191.01736
0.695878 535.49 190.1131
0.696157 438.46 193.20801
0.696435 785.21 193.21048
0.696714 493.03 192.26254
0.696992 200.9 194.59261
0.697271 359.86 195.54719
0.697549 628.76 196.09395
0.697828 814.22 198.71533
0.698107 266.97 197.33138
0.698385 551.05 200.34913
0.698664 251.83 200.61348
0.698942 423.75 201.32876
0.699221 415.12 203.54964
0.699499 614.25 203.82153
0.699778 345.04 205.63825
0.700057 508.85 206.1562
0.700335 368.85 207.51002
0.700614 487.2 210.96697
0.700892 401.17 210.19085
0.701171 100.16 211.34649
0.701449 426.27 213.46841
0.701728 332.61 214.38545
0.702007 353.38 219.64736
0.702285 702.94 217.54822
0.702564 399.23 218.20779
0.702842 168 217.81057
0.703121 463.42 224.27714
0.703399 840.56 227.77348
0.703678 709.83 225.9031
0.703957 546.2 228.42479
0.704235 300.9 231.52154
0.704514 418.62 231.72095
0.704792 423.84 231.66324
0.705071 254.69 235.16991
0.705349 173.76 234.96568
0.705628 415.88 244.37478
0.705907 237.94 236.5539
0.706185 451.59 244.03204
0.706464 96.64 244.83125
0.706742 714.25 247.03952
0.707021 746.26 246.1805
0.707299 284.67 246.25595
0.707578 447.63 247.31508
0.707856 759.65 253.07379
0.708135 217.55 248.33576
0.708414 247.96 246.97723
0.708692 -24.38 249.20435
0.708971 428.25 253.7608
0.709249 787.7 260.0695
0.709528 720.12 253.90776
0.709806 45.81 259.52131
0.710085 632.4 263.17757
0.710364 440.74 266.10227
0.710642 280.6 263.80097
0.710921 186.29 270.4437
0.711199 452.65 277.07155
0.711478 860.85 278.27758
0.711756 338.58 280.15173
0.712035 579.5 285.01755
0.712314 131.34 287.00423
0.712592 260.49 289.35592
0.712871 836.26 301.49311
0.713149 928.87 296.36246
0.713428 309.28 302.6496
0.713706 493.53 310.16998
0.713985 449.72 314.02331
0.714264 1232.63 315.04221
0.714542 819.82 316.67568
0.714821 626.15 320.82904
0.715099 -35.58 320.27485
0.715378 -87.83 316.70161
0.715656 361.15 324.19559
0.715935 697.91 330.6774
0.716214 496.44 331.63135
0.716492 566.29 332.12595
0.716771 701.55 336.3262
0.717049 -69.54 340.12521
0.717328 1086.99 350.86421
0.717606 309.84 342.22599
0.717885 853.99 348.643
0.718164 712.03 351.81106
0.718442 741.49 356.20697
0.718721 924.39 368.0688
0.718999 633.32 353.19547
0.719278 854.24 360.88662
0.719556 415.94 367.00359
0.719835 129.62 375.13025
0.720114 -43.95 367.22119
0.720392 346.96 377.41201
0.720671 279.7 384.22462
0.720949 354.53 394.12727
0.721228 1076.72 385.78936
0.721506 1207.93 395.08842
0.721785 224.18 401.08303
0.722064 1064.69 409.85113
0.722342 1110.81 402.10066
0.722621 292.24 408.2125
0.722899 -230.4 419.06256
0.723178 488.93 419.36416
0.723456 -8.7 425.73883
0.723735 -128.06 418.9274
0.724014 164.91 432.16154
0.724292 1337.86 444.75742
0.724571 198.96 444.53841
0.724849 168.2 452.25482
0.725128 868.2 464.31384
0.725406 -184.17 471.00257
0.725685 93.64 468.92631
0.725964 256.19 487.65271
0.726242 1044.83 493.12711
0.726521 -568.51 508.9523
0.726799 1051.32 521.82087
0.727078 604.18 526.27842
0.727356 -35.2 544.13653
0.727635 382.2 555.65436
0.727914 1691.24 562.0696
0.728192 953.84 582.32759
0.728471 267.94 595.26009
0.728749 371.95 600.0487
0.729028 885.52 636.14732
0.729306 632.94 647.06832
0.729585 -739.02 662.22209
0.729864 35.91 695.2963
0.730142 1318.4 750.16724
0.730421 903.79 733.98135
0.730699 -368 768.75101
0.730978 -614.5 786.60061
0.731256 271.83 839.801
0.731535 948.47 877.91961
0.731814 584.18 982.86516
0.732092 -854.13 976.33941
0.732371 902.71 1087.6237
0.732649 105 1162.4209
0.732928 677.05 1373.4025
0.733206 -1451.24 1571.5024

