# Q [1/Ã…] I(Q) [a.u.] dI(Q) [a.u.]
0.00223785 90785 24930.51
0.00251642 57197 19250.056
0.00279499 88499 13640.615
0.00307356 113980 10575.219
0.00335213 73121 7646.0471
0.0036307 95708 6442.5396
0.00390927 80268.6 5002.8016
0.00418784 87827.2 4272.4681
0.00446641 77998.4 3716.4028
0.00474498 84011.5 3235.6759
0.00502355 86139 2757.1265
0.00530212 77989.8 2453.2367
0.00558069 80962.6 2142.9455
0.00585926 77897.4 1992.4286
0.00613783 81022.6 1787.0895
0.0064164 81132 1547.7222
0.00669497 79723.7 1542.3944
0.00697355 80526.68 1330.2933
0.00725212 81403.32 1299.2101
0.00753069 81547.27 1179.0605
0.00780926 80102.35 1121.3242
0.00808783 81276.35 1098.2079
0.0083664 80956.58 1015.7488
0.00864497 80613.18 980.42106
0.00892354 80579.71 927.55913
0.00920211 79063.89 879.31333
0.00948068 79057.4 891.1483
0.00975925 79972.66 820.41762
0.0100378 80530.6 815.82191
0.0103164 78818.12 784.33364
0.010595 77862.87 760.43466
0.0108735 79377.66 751.36143
0.0111521 79099.79 723.78092
0.0114307 78054.88 730.95523
0.0117092 79006.89 690.18072
0.0119878 78325.63 677.15429
0.0122664 78494.76 675.99989
0.012545 78995.11 649.24257
0.0128235 78537.81 652.73781
0.0131021 78509.6 638.08263
0.0133807 78673.01 620.14522
0.0136592 78267.95 616.95854
0.0139378 76996.56 593.81436
0.0142164 75745.07 596.99864
0.0144949 77019.49 586.52156
0.0147735 77599.92 578.87285
0.0150521 77421.71 572.28996
0.0153307 77360.72 560.14896
0.0156092 76504.11 555.09187
0.0158878 77024.32 553.09712
0.0161664 76394.04 538.26481
0.0164449 76061.33 540.44007
0.0167235 76179.47 522.52477
0.0170021 77089.7 524.34807
0.0172806 77278.59 523.63979
0.0175592 76256.04 516.95464
0.0178378 75493.22 507.31578
0.0181164 75208.08 498.10431
0.0183949 75185.73 494.66158
0.0186735 76150.42 490.48758
0.0189521 75482.63 497.03983
0.0192306 75416.64 504.0535
0.0195092 74865.38 504.66802
0.0197878 74722.23 498.41708
0.0200664 75990.15 503.99899
0.0203449 75092.62 501.15632
0.0206235 74187.36 497.69689
0.0209021 74771.56 495.31687
0.0211806 74242.45 493.68044
0.0214592 74437.63 496.06554
0.0217378 74146.45 488.86794
0.0220163 73890.13 489.52395
0.0222949 73533.63 489.11157
0.0225735 72385.2 483.52211
0.0228521 73160.56 483.9155
0.0231306 73653.27 480.18161
0.0234092 73784.18 481.31756
0.0236878 72912.42 483.55271
0.0239663 72436.41 474.85663
0.0242449 72115.06 472.54677
0.0245235 71874.97 468.00173
0.024802 71335.8 470.44281
0.0250806 72754.14 472.24942
0.0253592 71625.13 458.33117
0.0256378 72015.53 458.08101
0.0259163 71521.99 443.20264
0.0261949 70886.3 442.10571
0.0264735 70820 433.18109
0.026752 71590.16 422.46636
0.0270306 70483.78 422.82266
0.0273092 70138.02 419.11402
0.0275877 70739.64 414.22684
0.0278663 70374.29 411.40725
0.0281449 69440.53 404.25325
0.0284235 70038.73 408.78371
0.028702 69645.15 400.77384
0.0289806 68676.93 393.63783
0.0292592 68985.57 395.33308
0.0295377 69352.87 390.12697
0.0298163 69057.59 387.37078
0.0300949 68868.54 383.28924
0.0303735 68587.45 379.30888
0.030652 68696.65 382.28806
0.0309306 67754.59 375.99708
0.0312092 67805.55 372.37998
0.0314877 67981.84 373.4074
0.0317663 67243.31 367.77657
0.0320449 67308.28 366.48022
0.0323234 66899.92 364.69124
0.032602 66047.1 358.45014
0.0328806 65921.37 357.34513
0.0331592 66192.45 355.99777
0.0334377 66280.89 355.24241
0.0337163 65809.02 358.7749
0.0339949 65599.18 356.8395
0.0342734 65261.64 365.07687
0.034552 64638.99 361.80203
0.0348306 65276.39 358.56482
0.0351091 64659.14 361.72837
0.0353877 64278.64 360.68622
0.0356663 63616.88 364.16473
0.0359449 63430.36 356.42268
0.0362234 64050.54 356.46473
0.036502 63899.66 359.14948
0.0367806 63416.34 356.44946
0.0370591 63648.57 361.96894
0.0373377 62950.23 353.30787
0.0376163 62443.02 354.39231
0.0378949 62101.62 352.97138
0.0381734 62535.23 349.5039
0.038452 61953.16 355.77013
0.0387306 61307.77 346.57978
0.0390091 61342.05 352.24053
0.0392877 61211.23 350.26325
0.0395663 61214.58 344.20906
0.0398448 60970.15 347.80615
0.0401234 60588.9 345.11151
0.040402 60278.65 347.75209
0.0406806 59649.09 344.15737
0.0409591 59830.81 337.3871
0.0412377 59205.83 341.34737
0.0415163 59090.51 336.81743
0.0417948 58934.18 338.78102
0.0420734 59110.38 337.19816
0.042352 58639.23 337.09421
0.0426305 58126.6 342.32932
0.0429091 57890.69 337.70543
0.0431877 57895.93 343.73049
0.0434663 58310.47 342.32817
0.0437448 56728.72 346.48746
0.0440234 57036.22 348.1615
0.044302 56762.14 343.31559
0.0445805 56692.78 345.66362
0.0448591 56104.56 344.79646
0.0451377 55597.26 349.09527
0.0454163 55569.86 347.89442
0.0456948 55394.51 346.35859
0.0459734 55247.39 348.5616
0.046252 55504.65 348.8872
0.0465305 54384.67 341.97378
0.0468091 54893.77 341.34228
0.0470877 54603.05 336.74677
0.0473662 53795.31 331.44603
0.0476448 54139.01 331.85588
0.0479234 53712.38 327.39739
0.048202 52483.35 325.18284
0.0484805 52932.23 322.79613
0.0487591 52823.13 319.89204
0.0490377 51738.54 319.78795
0.0493162 52344.28 315.59905
0.0495948 52176.21 316.12255
0.0498734 51071 311.23903
0.0501519 51173.02 311.59089
0.0504305 50873.47 314.27458
0.0507091 51016.52 311.37898
0.0509877 50341.33 311.73526
0.0512662 50240.91 308.62005
0.0515448 49477.9 307.32536
0.0518234 50183.88 310.31159
0.0521019 49307.9 304.94533
0.0523805 49661.17 307.50334
0.0526591 49196.95 307.60469
0.0529376 48950.82 303.06639
0.0532162 48495.76 305.27882
0.0534948 48415.17 303.43309
0.0537734 48100.4 301.67731
0.0540519 47533.62 298.46301
0.0543305 47399.68 298.6396
0.0546091 46758.81 297.2885
0.0548876 46371.87 289.99385
0.0551662 46690.21 292.1775
0.0554448 46191.75 291.90327
0.0557234 45918.45 286.59655
0.0560019 45498.18 289.71065
0.0562805 45666.49 284.40786
0.0565591 45071.69 284.83977
0.0568376 45424.06 285.97913
0.0571162 44721.81 282.59716
0.0573948 44886.19 284.10314
0.0576733 43957.59 279.31556
0.0579519 43748.89 280.98497
0.0582305 44005.66 279.7289
0.0585091 43944 278.47534
0.0587876 43880.1 278.71481
0.0590662 42539.57 276.71884
0.0593448 42811.58 276.84883
0.0596233 42077.69 273.38656
0.0599019 42520.74 273.51595
0.0601805 42200.4 274.39347
0.060459 42372.27 272.49002
0.0607376 41613.63 267.6823
0.0610162 41026.85 269.54104
0.0612948 40631.53 269.16255
0.0615733 40966.22 268.69363
0.0618519 40803.19 266.52833
0.0621305 39929.76 264.69077
0.062409 39858.73 264.01851
0.0626876 39953.02 266.7475
0.0629662 39725.79 263.20147
0.0632448 39028.03 262.0956
0.0635233 39426.4 261.48279
0.0638019 38775.13 259.66458
0.0640805 38945.31 261.19882
0.064359 38230.67 257.13195
0.0646376 37588.9 257.88554
0.0649162 37505.61 256.88982
0.0651947 37622.88 256.75996
0.0654733 36707.61 253.01674
0.0657519 36704.9 252.56861
0.0660305 36739.8 253.95458
0.066309 36272.52 251.8251
0.0665876 36138.13 250.94455
0.0668662 36517.14 249.55361
0.0671447 35513.07 247.73042
0.0674233 35649.96 250.32623
0.0677019 34989.2 245.97702
0.0679804 35127.04 247.34117
0.068259 34963.41 246.30939
0.0685376 34575.62 244.55643
0.0688162 34433.05 243.72187
0.0690947 34294.14 241.10925
0.0693733 33693.69 243.09135
0.0696519 33806.7 242.28628
0.0699304 33225.26 240.59492
0.070209 33129.54 239.8617
0.0704876 33111.35 235.70448
0.0707662 32493.43 238.60549
0.0710447 32215.38 236.80935
0.0713233 31823.1 235.5299
0.0716019 31848.31 235.5449
0.0718804 32086.1 233.65719
0.072159 31716.06 235.58732
0.0724376 31678.21 233.23998
0.0727161 31077.7 231.64288
0.0729947 30414.14 231.62911
0.0732733 30662.09 231.85974
0.0735519 30287.13 228.99099
0.0738304 30315.49 228.03022
0.074109 29843.51 227.12035
0.0743876 29921.66 228.01778
0.0746661 29560.55 226.44068
0.0749447 29105.12 223.37686
0.0752233 29000.52 224.36018
0.0755018 28604.72 223.9469
0.0757804 28913.28 224.27299
0.076059 28155.48 223.07312
0.0763376 28451.42 222.96783
0.0766161 27995.41 220.49306
0.0768947 27496.84 220.21716
0.0771733 27248.17 218.95748
0.0774518 27140.77 217.5287
0.0777304 26866.82 216.48849
0.078009 26736.97 222.61411
0.0782875 26329.45 221.34318
0.0785661 26683.81 223.12344
0.0788447 26285.91 223.78796
0.0791233 26565.66 225.90522
0.0794018 25756.43 228.24705
0.0796804 25590.49 224.41552
0.079959 25292.52 227.1446
0.0802375 24973.41 226.78495
0.0805161 25072.32 227.72543
0.0807947 24487.17 228.08331
0.0810733 24872.71 226.72793
0.0813518 23996.27 228.30118
0.0816304 24085.82 227.85585
0.081909 23829.01 227.30052
0.0821875 23895.05 228.20604
0.0824661 23237.09 227.96102
0.0827447 23191.11 228.60081
0.0830232 23161.83 228.75007
0.0833018 23101.37 226.64675
0.0835804 22493.18 226.83585
0.083859 22184.58 228.46779
0.0841375 22212.78 228.52382
0.0844161 22170.33 226.9808
0.0846947 21977.34 222.41899
0.0849732 21955.89 220.73688
0.0852518 21456.37 216.99176
0.0855304 21535.36 215.94836
0.0858089 20884.84 212.4072
0.0860875 20988.05 212.62644
0.0863661 20882.4 210.90293
0.0866447 20897.45 209.86966
0.0869232 20314.86 208.20562
0.0872018 20517.14 208.04136
0.0874804 20488.99 207.99811
0.0877589 19615.03 204.76643
0.0880375 19879.7 202.99469
0.0883161 19543.19 201.98588
0.0885947 19199.6 202.25192
0.0888732 19347.69 201.16824
0.0891518 18906.52 199.13437
0.0894304 18700.21 198.01501
0.0897089 18696.36 197.269
0.0899875 18365.46 196.56763
0.0902661 18282.93 195.09659
0.0905446 18298.69 193.63734
0.0908232 17805.55 193.98315
0.0911018 17873.76 192.76491
0.0913804 17776.16 191.20968
0.0916589 17346.18 190.43332
0.0919375 17270.22 193.40319
0.0922161 16738.54 197.49062
0.0924946 16548.32 195.12964
0.0927732 16778.97 196.72708
0.0930518 16537.15 197.68623
0.0933303 16227.14 198.00358
0.0936089 16087.24 198.76749
0.0938875 16045.55 199.00616
0.0941661 15453.89 198.4791
0.0944446 15662.37 198.96194
0.0947232 15606.06 197.79936
0.0950018 15609.63 199.3432
0.0952803 15296.55 197.55433
0.0955589 15412.84 199.77919
0.0958375 14877.66 195.80548
0.0961161 14911.55 191.49751
0.0963946 14692.43 190.66092
0.0966732 14151.51 188.36961
0.0969518 14617.91 189.22003
0.0972303 14589.31 187.16017
0.0975089 14347.02 185.74802
0.0977875 13932.23 184.35398
0.098066 13614.28 183.7179
0.0983446 13665 184.18235
0.0986232 13640.78 181.30119
0.0989018 13425.9 183.5078
0.0991803 13187.41 181.44946
0.0994589 13167.37 179.84851
0.0997375 12961.06 179.17375
0.100016 12685.05 177.78782
0.100295 12804.98 177.45358
0.100573 12795.44 176.89179
0.100852 12679.78 175.73191
0.10113 12658.03 174.99821
0.101409 12279.53 173.44925
0.101687 11966.03 172.76749
0.101966 12375.87 172.47576
0.102245 12067.64 172.46841
0.102523 11915.96 170.88261
0.102802 11581.53 171.1189
0.10308 11808.42 170.03013
0.103359 11427.64 170.26117
0.103637 11432.85 169.79455
0.103916 11093.46 168.13774
0.104195 11114.98 168.40958
0.104473 11102.22 167.05822
0.104752 10740.5 167.32917
0.10503 10656.73 167.56174
0.105309 10427.33 165.35703
0.105587 10475.85 166.22454
0.105866 10381.26 164.41285
0.106145 10163.54 164.51218
0.106423 9915.58 163.94912
0.106702 10209.47 163.63596
0.10698 10202.08 165.27076
0.107259 9711.75 161.47882
0.107537 9854.79 163.04772
0.107816 9429.06 161.93314
0.108095 9348.84 160.56076
0.108373 9400.75 160.88743
0.108652 9107.51 160.52465
0.10893 8925.84 159.98452
0.109209 9007.6 159.13068
0.109487 8811.83 158.70475
0.109766 8753.74 159.67902
0.110045 8748.09 158.94216
0.110323 8672.26 158.19499
0.110602 8241.53 157.2975
0.11088 8556.61 157.65408
0.111159 8397.24 158.17436
0.111437 8324.9 155.17146
0.111716 8400.2 156.82891
0.111995 7975.63 155.98113
0.112273 7940.95 154.13801
0.112552 7821.57 155.53011
0.11283 7694.58 153.18348
0.113109 7624.08 154.07639
0.113387 7709.09 154.24069
0.113666 7422.8 152.87966
0.113945 7255.41 152.39652
0.114223 7530.81 152.2659
0.114502 6989.94 151.9524
0.11478 6940.79 151.57475
0.115059 6843.46 150.72487
0.115337 7102.62 151.85225
0.115616 6940.01 150.903
0.115895 6754.71 150.30673
0.116173 6692.83 150.23286
0.116452 6494.09 149.88234
0.11673 6651.34 149.83242
0.117009 6170 149.04009
0.117287 6268.01 147.49212
0.117566 6359.71 148.91292
0.117845 6237.39 147.4268
0.118123 6221.52 147.50148
0.118402 6381.91 146.78828
0.11868 6125.73 145.83183
0.118959 5904.54 146.31193
0.119237 5846.17 145.91475
0.119516 5645.21 145.19541
0.119795 5596.24 144.76883
0.120073 5438.34 143.36424
0.120352 5416.51 144.28884
0.12063 5682.66 143.64959
0.120909 5519.98 142.896
0.121187 5627.67 143.47882
0.121466 5695.05 142.43852
0.121745 5438.77 142.38757
0.122023 5292.57 141.00225
0.122302 5399.72 140.31061
0.12258 5117.9 140.55237
0.122859 5020.4 140.61778
0.123137 4740.63 141.0948
0.123416 5114.87 139.33816
0.123695 5023.09 138.76924
0.123973 4752.7 139.01258
0.124252 4637.73 137.46837
0.12453 4463.77 138.63824
0.124809 4549.41 137.13987
0.125087 4574.49 138.74409
0.125366 4469.63 137.3315
0.125645 4236.86 136.59893
0.125923 4511.21 137.84457
0.126202 4329.59 135.96961
0.12648 4229.54 137.09494
0.126759 4002.75 137.24358
0.127037 4211.92 136.6863
0.127316 4113.55 135.93077
0.127594 4083.55 135.56614
0.127873 3922.21 136.47207
0.128152 3978.28 136.2751
0.12843 3904.53 135.30638
0.128709 3876.28 135.32021
0.128987 3947.91 135.11866
0.129266 3744.02 134.48622
0.129544 3637.57 134.50988
0.129823 3873.87 133.90591
0.130102 3410.75 134.50772
0.13038 3624.61 133.13777
0.130659 3507.22 132.61349
0.130937 3480.75 132.84923
0.131216 3645.54 132.7925
0.131494 3330.82 132.7961
0.131773 3461.12 132.54509
0.132052 3236.25 130.80327
0.13233 3342.71 132.27193
0.132609 3246.74 131.68716
0.132887 3212.89 131.13478
0.133166 3412.05 131.20714
0.133444 3218.27 130.95102
0.133723 3050.67 130.61132
0.134002 3076.95 130.04429
0.13428 3016.57 129.75021
0.134559 3014.82 130.36187
0.134837 2769.01 129.0595
0.135116 2944.58 130.40548
0.135394 3014.69 128.75027
0.135673 2820.68 129.07034
0.135952 2821.42 129.70626
0.13623 3006.5 128.05386
0.136509 2676.48 129.24963
0.136787 2458.79 127.84862
0.137066 2519.8 129.90941
0.137344 2611.45 131.45006
0.137623 2600.42 131.90724
0.137902 2581.03 132.91976
0.13818 2455.38 133.77359
0.138459 2380.25 133.09571
0.138737 2170.24 134.53954
0.139016 2416.06 133.91786
0.139294 2364.29 135.62937
0.139573 2455.44 134.88727
0.139852 2499.16 135.1136
0.14013 2282.06 136.7395
0.140409 2265.84 135.22845
0.140687 2032.37 136.62194
0.140966 2113.85 136.34022
0.141244 1932.04 136.82082
0.141523 2378.85 137.29318
0.141802 2157.8 136.95904
0.14208 2298.73 137.55623
0.142359 2038.44 137.2191
0.142637 2075.12 138.1312
0.142916 1920.68 138.05063
0.143194 2095.3 137.18017
0.143473 1962.03 138.31406
0.143752 1796.36 135.37228
0.14403 1860.94 134.50126
0.144309 1864.11 132.52175
0.144587 2018.86 131.36549
0.144866 2058.16 131.03226
0.145144 1997.54 129.94456
0.145423 1670.96 129.77096
0.145702 1539.59 129.14132
0.14598 1753.69 129.06642
0.146259 1594.83 127.74778
0.146537 1661.94 128.23968
0.146816 1798.07 127.54315
0.147094 1402.23 127.04157
0.147373 1497.78 126.26267
0.147652 1606.28 127.19292
0.14793 1798.64 126.12731
0.148209 1741.88 126.12531
0.148487 1492.41 125.93218
0.148766 1518.24 125.48821
0.149044 1563.42 124.98446
0.149323 1332.36 124.4283
0.149602 1724.36 125.28452
0.14988 1375.37 124.66768
0.150159 1529.89 124.13287
0.150437 1308.26 124.24554
0.150716 1277.37 125.07971
0.150994 1535.2 123.51147
0.151273 1495.88 123.98665
0.151552 1337.34 124.14074
0.15183 1457.49 123.06457
0.152109 1523.1 123.93685
0.152387 1314.71 122.28737
0.152666 1485.92 123.33441
0.152944 1443.21 122.69974
0.153223 1382.19 121.68584
0.153502 1194.88 122.68334
0.15378 1401.51 121.65054
0.154059 1241.11 122.11638
0.154337 1354.43 121.27784
0.154616 1364.89 120.97506
0.154894 1132.34 121.30048
0.155173 1361.14 120.6526
0.155452 1327.31 121.78332
0.15573 1118.3 120.8924
0.156009 1210.8 120.54587
0.156287 1317.15 120.41558
0.156566 1236.36 119.12166
0.156844 1248.7 120.06591
0.157123 1207.07 120.44846
0.157402 1118.18 119.37527
0.15768 1220.62 118.9302
0.157959 981.56 118.52611
0.158237 1083.92 119.48955
0.158516 921.19 119.1735
0.158794 1253.93 118.95592
0.159073 1257.96 118.67372
0.159352 1123.93 118.53762
0.15963 1277 118.36127
0.159909 1120.37 118.39637
0.160187 1059.68 117.80329
0.160466 961.69 118.68179
0.160744 875.49 118.41458
0.161023 1068.09 117.70389
0.161302 724.95 117.56831
0.16158 917.97 117.08066
0.161859 1116.63 117.5602
0.162137 1171.9 118.14435
0.162416 1208.91 116.63936
0.162694 1115.61 117.09272
0.162973 903.65 116.60345
0.163252 1031.88 116.02524
0.16353 868 116.53626
0.163809 1018.43 116.16112
0.164087 1046.07 116.3948
0.164366 931 115.39745
0.164644 944.01 115.5671
0.164923 853.27 115.97546
0.165201 1016.27 114.89292
0.16548 944.04 116.06638
0.165759 742.18 115.16421
0.166037 701.61 114.72535
0.166316 790.75 115.29647
0.166594 996.32 114.74143
0.166873 892.97 115.05494
0.167151 953.41 114.12612
0.16743 802.72 114.10665
0.167709 926.42 114.10292
0.167987 1107.26 113.61008
0.168266 859.97 113.64888
0.168544 642.51 113.77587
0.168823 709.52 113.75138
0.169101 787.11 113.36646
0.16938 823.62 113.27167
0.169659 730.1 113.7228
0.169937 913.04 113.45352
0.170216 783.9 113.33723
0.170494 792.67 113.19619
0.170773 940.2 112.5899
0.171051 875.87 112.94578
0.17133 833.44 112.80536
0.171609 710.43 112.61618
0.171887 779.7 112.44305
0.172166 864.48 112.84508
0.172444 983.13 113.04878
0.172723 986.06 112.53152
0.173001 946.71 112.6319
0.17328 899 112.61017
0.173559 603.01 112.81503
0.173837 726.7 111.71459
0.174116 1051.08 112.47596
0.174394 868.94 111.86371
0.174673 929.75 112.80041
0.174951 986.13 112.11662
0.17523 735.98 111.82322
0.175509 754.49 111.87407
0.175787 746.1 111.58911
0.176066 899.49 111.39099
0.176344 740.57 111.36545
0.176623 678.42 111.50788
0.176901 817.6 111.69247
0.17718 761.23 111.34971
0.177459 837.19 111.6092
0.177737 940.13 111.99614
0.178016 603.5 110.91667
0.178294 774.58 111.43137
0.178573 877.45 110.88665
0.178851 855.67 111.53897
0.17913 688.52 110.09344
0.179409 754.61 110.59692
0.179687 742.56 110.57073
0.179966 593.12 110.62167
0.180244 656.31 110.58659
0.180523 696.25 109.89271
0.180801 845.24 110.24744
0.18108 865.26 110.53333
0.181359 750.52 110.82351
0.181637 630.94 110.11548
0.181916 785.94 109.79352
0.182194 814.96 110.12149
0.182473 784.99 110.89793
0.182751 682.61 109.96985
0.18303 637.01 110.80134
0.183309 738.56 110.67463
0.183587 619.12 110.75082
0.183866 728.17 110.76666
0.184144 661.03 110.32766
0.184423 846.25 110.79368
0.184701 630.33 110.71281
0.18498 858.8 111.50621
0.185259 550.51 110.81199
0.185537 762.62 110.70238
0.185816 561.19 111.25642
0.186094 768.7 110.85904
0.186373 722.66 110.17652
0.186651 865.15 110.59191
0.18693 678.69 109.85607
0.187209 649.06 109.76348
0.187487 827.46 110.32858
0.187766 823.65 110.0071
0.188044 642.49 109.74274
0.188323 835.06 110.13659
0.188601 861.17 109.1981
0.18888 829.52 109.80386
0.189159 567.83 108.81166
0.189437 685.6 109.53537
0.189716 716.3 108.9412
0.189994 917.12 108.10587
0.190273 809.95 108.89587
0.190551 844.58 108.42835
0.19083 721.33 108.26769
0.191109 930.64 108.77708
0.191387 852.65 107.37906
0.191666 461.6 108.38112
0.191944 834.97 108.01902
0.192223 718.28 107.6571
0.192501 730.53 108.35662
0.19278 886.12 107.21872
0.193059 942.89 107.92639
0.193337 584.19 107.13992
0.193616 774.33 107.54793
0.193894 829.22 107.82908
0.194173 650.71 106.4441
0.194451 755.04 107.49486
0.19473 812.1 107.49738
0.195009 688.11 106.63424
0.195287 531.69 106.94474
0.195566 739.44 106.18511
0.195844 879.94 107.33153
0.196123 722.97 107.82297
0.196401 741.11 108.765
0.19668 679.75 110.56781
0.196959 777.87 109.89067
0.197237 780.2 111.14989
0.197516 759.05 111.08397
0.197794 795.9 111.25667
0.198073 650.4 112.16225
0.198351 805.47 111.93068
0.19863 602.46 112.70417
0.198909 678.44 112.33125
0.199187 800.72 112.46341
0.199466 711.34 114.25908
0.199744 695.49 112.87008
0.200023 719.46 113.85223
0.200301 567.53 113.54328
0.20058 654.89 115.06001
0.200858 855.17 115.59795
0.201137 722.28 114.46412
0.201416 929.24 115.44982
0.201694 657.87 115.32427
0.201973 896.64 116.13674
0.202251 573.78 116.10055
0.20253 644.92 116.13111
0.202808 669.1 114.27072
0.203087 758.61 114.10302
0.203366 769.32 112.14865
0.203644 546.95 112.2185
0.203923 595.97 111.41253
0.204201 786.49 111.2837
0.20448 672.7 111.63373
0.204758 517.75 109.89095
0.205037 708.75 109.79302
0.205316 789.8 110.35602
0.205594 726.8 109.31958
0.205873 727.02 110.46838
0.206151 673.61 108.79408
0.20643 820.61 109.85561
0.206708 880.12 108.94402
0.206987 734.72 109.20347
0.207266 863.12 109.05714
0.207544 612.62 108.16901
0.207823 675.18 109.10887
0.208101 727.67 108.38651
0.20838 711.59 108.09985
0.208658 705.51 108.83161
0.208937 589.48 107.87517
0.209216 655.36 109.15719
0.209494 504.82 107.21286
0.209773 597.53 107.34156
0.210051 775.78 108.06886
0.21033 821.04 107.28899
0.210608 667.42 107.9474
0.210887 832.23 106.62496
0.211166 703.73 107.30552
0.211444 1027.78 107.62725
0.211723 785.67 106.5006
0.212001 536.52 107.41154
0.21228 745.8 106.20685
0.212558 729.06 107.20384
0.212837 826.82 106.48311
0.213116 831.85 105.93682
0.213394 659.65 106.09785
0.213673 812.07 106.51156
0.213951 798.04 106.4931
0.21423 767.45 106.0681
0.214508 712.73 105.91195
0.214787 644.25 105.24541
0.215066 741.69 106.04453
0.215344 714.65 105.60119
0.215623 802.36 105.73094
0.215901 757.81 105.34325
0.21618 695.53 105.6296
0.216458 659.58 105.47787
0.216737 671.25 105.40013
0.217016 771.31 104.62634
0.217294 630.63 105.56245
0.217573 584.08 104.88881
0.217851 806.31 104.53943
0.21813 671.83 104.62402
0.218408 694.62 103.85146
0.218687 791.93 104.31322
0.218966 739.07 103.98064
0.219244 666.25 104.2873
0.219523 515.16 103.95501
0.219801 800.11 103.99217
0.22008 698.98 103.92396
0.220358 722.71 103.69989
0.220637 730.47 104.57433
0.220916 831.61 103.44054
0.221194 878.39 103.63506
0.221473 636.6 103.09347
0.221751 840.63 103.78916
0.22203 508.78 103.70988
0.222308 722.23 103.16355
0.222587 649.53 103.09685
0.222866 903.21 103.49458
0.223144 712.69 102.96364
0.223423 702.26 103.67398
0.223701 703.8 102.55349
0.22398 570.85 103.39632
0.224258 763.48 103.55848
0.224537 831.72 103.1465
0.224816 829.32 102.92931
0.225094 835.36 102.88993
0.225373 669.46 103.24755
0.225651 787.33 103.22244
0.22593 581.8 102.88291
0.226208 546.85 102.59363
0.226487 630.51 102.51871
0.226766 686.96 102.31356
0.227044 602.61 102.69627
0.227323 834.8 102.81487
0.227601 869.89 102.33593
0.22788 716.2 102.09236
0.228158 587.98 102.32875
0.228437 763.68 101.73716
0.228716 720.61 101.92429
0.228994 607.09 101.94762
0.229273 712.11 101.13348
0.229551 645.43 100.92607
0.22983 841.77 101.48029
0.230108 885.14 101.60128
0.230387 800.37 101.49504
0.230666 774.85 101.71362
0.230944 701.89 101.25065
0.231223 738.52 101.75976
0.231501 718.48 101.59824
0.23178 800.69 101.85542
0.232058 638.52 102.55257
0.232337 772.31 101.91508
0.232616 749.6 102.67356
0.232894 568.64 102.27437
0.233173 620.08 102.88285
0.233451 627.49 102.86077
0.23373 593.25 102.8869
0.234008 727.13 102.6455
0.234287 671.98 103.10712
0.234566 610.8 102.86255
0.234844 730.2 103.44994
0.235123 722.46 102.69244
0.235401 715.73 103.03255
0.23568 770.96 102.45581
0.235958 710.02 102.10578
0.236237 704.44 102.84069
0.236515 805.56 101.80857
0.236794 780.1 102.02363
0.237073 656.17 102.17757
0.237351 736.67 102.03772
0.23763 554.4 101.74234
0.237908 680.67 101.71947
0.238187 574.01 101.11857
0.238465 615.86 101.07466
0.238744 640.06 101.1719
0.239023 737.55 101.17171
0.239301 678.22 101.13916
0.23958 667.87 101.35817
0.239858 649.2 100.45201
0.240137 435.91 101.47437
0.240415 543.97 100.55938
0.240694 551.93 100.15404
0.240973 626.21 100.67209
0.241251 613.41 100.61631
0.24153 704.97 100.49304
0.241808 548.93 100.15468
0.242087 433.73 100.52144
0.242365 579.3 100.24945
0.242644 713.84 99.877266
0.242923 722.63 100.059
0.243201 577.76 100.0045
0.24348 667.41 99.262726
0.243758 530.5 99.58148
0.244037 722.9 99.029077
0.244315 772.6 99.218684
0.244594 623.13 98.694283
0.244873 646.18 99.013113
0.245151 537.34 98.395067
0.24543 732.61 99.31496
0.245708 692.96 98.349925
0.245987 641.44 98.306135
0.246265 409.48 98.274179
0.246544 708.24 98.232942
0.246823 590.74 98.792317
0.247101 619.4 97.968118
0.24738 634.59 98.494015
0.247658 445.87 98.172563
0.247937 849.43 98.069738
0.248215 532.44 98.653652
0.248494 575.6 98.281899
0.248773 680.58 97.941415
0.249051 666.31 97.937342
0.24933 650.97 98.51389
0.249608 658.86 97.839308
0.249887 566.02 97.882916
0.250165 372.17 98.03911
0.250444 687.18 98.022233
0.250723 549.31 97.723279
0.251001 611.6 97.888418
0.25128 559.3 97.584933
0.251558 624.34 97.891137
0.251837 452.28 97.231208
0.252115 538 97.58285
0.252394 650.09 98.046048
0.252673 644.05 97.486399
0.252951 375.72 97.080128
0.25323 623 97.25788
0.253508 578.24 96.950786
0.253787 681.17 97.713291
0.254065 525.5 97.124017
0.254344 541.96 96.846004
0.254623 521.72 97.289695
0.254901 426.95 97.332705
0.25518 664.45 98.608608
0.255458 443.07 98.915682
0.255737 520.61 99.815084
0.256015 629.81 100.64143
0.256294 483.65 101.25906
0.256573 450.47 101.35807
0.256851 552.94 101.92408
0.25713 399.47 101.89672
0.257408 648.49 102.35606
0.257687 470.89 103.49168
0.257965 562.1 102.72195
0.258244 474.54 103.34294
0.258523 453.08 104.28005
0.258801 580.03 103.51772
0.25908 416.61 104.07137
0.259358 747.3 104.08181
0.259637 531.14 104.9326
0.259915 458.68 103.98393
0.260194 362.88 104.86058
0.260473 705.78 104.51293
0.260751 489.07 104.7277
0.26103 471.07 105.35155
0.261308 308.17 105.60473
0.261587 526.63 105.5477
0.261865 817.62 103.84644
0.262144 680.17 102.99188
0.262423 746.87 103.1278
0.262701 508.89 101.9439
0.26298 439.87 102.08924
0.263258 536.08 101.40346
0.263537 681.87 100.8268
0.263815 469.33 100.89588
0.264094 539.17 100.15928
0.264373 386.75 101.50957
0.264651 484.63 99.923896
0.26493 489.6 99.762152
0.265208 381.34 99.643833
0.265487 428.41 99.579968
0.265765 280.7 100.45431
0.266044 443.88 99.066454
0.266323 384.72 99.794797
0.266601 494.54 99.077062
0.26688 379.75 99.034383
0.267158 593.03 99.333789
0.267437 323.01 98.636487
0.267715 617.79 98.83676
0.267994 532.55 99.12117
0.268273 388.36 97.664703
0.268551 279.17 98.685452
0.26883 363.67 97.51184
0.269108 494.32 98.078327
0.269387 573.84 97.665697
0.269665 531.82 96.667372
0.269944 548.67 97.790056
0.270223 344.82 96.741078
0.270501 495.61 96.635126
0.27078 312.38 97.046998
0.271058 407.75 96.703556
0.271337 525.86 96.541526
0.271615 600.56 96.525551
0.271894 429.14 96.267994
0.272172 407.75 96.467901
0.272451 406.43 96.386368
0.27273 320.76 96.414312
0.273008 491.12 95.975378
0.273287 518.95 95.733793
0.273565 335.54 96.227848
0.273844 509.89 96.039828
0.274122 526.53 96.124755
0.274401 467.17 96.021423
0.27468 609.41 95.901366
0.274958 449.72 96.306597
0.275237 512.16 95.528148
0.275515 508.35 95.820415
0.275794 404.26 96.240442
0.276072 555.18 95.473299
0.276351 299.71 95.363104
0.27663 203.1 95.290785
0.276908 487.66 95.188274
0.277187 521.3 95.6271
0.277465 460.59 95.027836
0.277744 502.08 95.40367
0.278022 362.03 94.868629
0.278301 412.68 95.088799
0.27858 503.21 95.763718
0.278858 407.16 94.807683
0.279137 371.62 95.531874
0.279415 554.61 95.27379
0.279694 425.44 94.996772
0.279972 296.77 94.871955
0.280251 217.13 94.537652
0.28053 473.44 94.996424
0.280808 570.65 95.034583
0.281087 499.23 94.757018
0.281365 395.12 94.854711
0.281644 353.78 94.841505
0.281922 363.21 94.764557
0.282201 429.65 94.735946
0.28248 387.95 94.515522
0.282758 248.17 94.508138
0.283037 198.7 94.524224
0.283315 320.14 94.63578
0.283594 492.37 94.05653
0.283872 443.11 94.260192
0.284151 383.89 94.13793
0.28443 660.96 94.377682
0.284708 170.6 93.954144
0.284987 442.23 93.911392
0.285265 405.54 94.152298
0.285544 176.52 93.572386
0.285822 545.77 94.249505
0.286101 247.99 93.717094
0.28638 266.49 93.550697
0.286658 429.87 93.914475
0.286937 241.57 93.605731
0.287215 385.25 93.465892
0.287494 266.51 93.414478
0.287772 414.25 93.775165
0.288051 467.64 93.528479
0.28833 358.69 93.470182
0.288608 441.38 93.462268
0.288887 310.66 92.923646
0.289165 359.61 93.368143
0.289444 201.17 92.924423
0.289722 445.6 93.002924
0.290001 316.67 93.371526
0.29028 488.73 93.240943
0.290558 447.81 93.722671
0.290837 395.74 92.552885
0.291115 354.11 92.777645
0.291394 369.36 92.852623
0.291672 444.15 93.317573
0.291951 140.09 93.07847
0.29223 230.69 92.47821
0.292508 375.53 92.960846
0.292787 381.02 92.749295
0.293065 249.59 92.528077
0.293344 466.22 92.841604
0.293622 392.48 92.280993
0.293901 413.14 92.549886
0.29418 429.1 92.634859
0.294458 288.23 92.187829
0.294737 341.19 92.457828
0.295015 350.01 92.603195
0.295294 467.05 92.444268
0.295572 409.81 92.417653
0.295851 333.69 91.728146
0.29613 216.7 92.190997
0.296408 242.46 92.217582
0.296687 427.81 92.369191
0.296965 384.15 92.175249
0.297244 362.45 91.78001
0.297522 337.02 92.311888
0.297801 270 91.941246
0.29808 412.38 92.148673
0.298358 349.09 91.729291
0.298637 64.87 92.229444
0.298915 379.96 91.529648
0.299194 239.2 91.618906
0.299472 287.38 91.587375
0.299751 195.91 91.977161
0.30003 438.97 91.810155
0.300308 222.02 91.538396
0.300587 264.47 91.11401
0.300865 275.43 91.10479
0.301144 166.17 91.42918
0.301422 243.18 91.117456
0.301701 369.55 91.214903
0.30198 314.99 91.843313
0.302258 427.59 90.917187
0.302537 316.44 91.439317
0.302815 229.36 90.699677
0.303094 336.63 91.06436
0.303372 191.12 91.238323
0.303651 350.36 90.250627
0.30393 367.52 90.97985
0.304208 391.75 90.763494
0.304487 331.72 90.366917
0.304765 176.75 91.285936
0.305044 270.93 90.324971
0.305322 232.09 90.820637
0.305601 287.2 90.237241
0.30588 211.61 90.053129
0.306158 340.69 90.944866
0.306437 385.75 90.392172
0.306715 469.22 90.521602
0.306994 283.09 90.196001
0.307272 373.7 90.347663
0.307551 262.12 90.217712
0.30783 395.06 90.404755
0.308108 313.5 90.612588
0.308387 233.99 90.289981
0.308665 147.33 90.39646
0.308944 395.57 90.527912
0.309222 81.59 90.295765
0.309501 434.2 90.483296
0.309779 446.99 90.520236
0.310058 369 90.63748
0.310337 318.84 90.079533
0.310615 401.93 89.939641
0.310894 254.25 90.534887
0.311172 256.85 90.102119
0.311451 308.11 90.395313
0.311729 324.39 90.043958
0.312008 350.36 90.417756
0.312287 208.68 90.109052
0.312565 351.54 89.531045
0.312844 357.8 89.807963
0.313122 202.95 89.980314
0.313401 398.97 90.313357
0.313679 188.05 89.794692
0.313958 454.05 89.949676
0.314237 332.94 90.454002
0.314515 303.47 91.857562
0.314794 333.16 92.128204
0.315072 210.52 93.25841
0.315351 217.86 92.879035
0.315629 189.34 93.664787
0.315908 357.21 94.015455
0.316187 24.56 94.217334
0.316465 318 94.266612
0.316744 162.26 94.949214
0.317022 284.12 94.706655
0.317301 163.15 94.996436
0.317579 481.6 95.100444
0.317858 196.9 95.57121
0.318137 283.15 96.346653
0.318415 112.47 95.556435
0.318694 248.17 96.918737
0.318972 344.64 96.277139
0.319251 296.58 96.842111
0.319529 248.57 97.712611
0.319808 275.45 96.910109
0.320087 369.71 97.91944
0.320365 221.42 97.183998
0.320644 340.02 97.687541
0.320922 328.99 96.996201
0.321201 318.1 95.218824
0.321479 257.36 95.472252
0.321758 253.39 94.82067
0.322037 415.09 94.384584
0.322315 78.45 94.367535
0.322594 358.19 93.567778
0.322872 171.7 94.161043
0.323151 466.64 93.185118
0.323429 170.18 92.813815
0.323708 275.91 93.191727
0.323987 234.63 93.062081
0.324265 487.73 92.89004
0.324544 269.01 93.352085
0.324822 330.91 92.556184
0.325101 282.53 92.47397
0.325379 211.85 91.937559
0.325658 278.39 92.63896
0.325937 359.96 92.327295
0.326215 237.51 91.791877
0.326494 263.63 92.031115
0.326772 192.72 91.666993
0.327051 183.31 91.546679
0.327329 382.68 91.755653
0.327608 238.89 91.252412
0.327887 325.71 91.652433
0.328165 187.13 91.118989
0.328444 418.45 90.620034
0.328722 336.41 91.334233
0.329001 339.13 90.358582
0.329279 275.81 91.215831
0.329558 236.54 91.227708
0.329837 454.01 89.870351
0.330115 399.57 90.711013
0.330394 300.63 90.268351
0.330672 285.01 90.460985
0.330951 250.55 90.562823
0.331229 312.73 89.941556
0.331508 233.99 90.663442
0.331787 283.82 89.696748
0.332065 130.86 90.137497
0.332344 393.88 89.991182
0.332622 180.9 89.879254
0.332901 295.07 90.448517
0.333179 130.59 89.335395
0.333458 379.5 89.563249
0.333737 311.47 90.026427
0.334015 434.78 89.982129
0.334294 346.78 90.342736
0.334572 305.08 89.345633
0.334851 117.18 89.572667
0.335129 301.97 89.71674
0.335408 263.39 88.944608
0.335687 203.63 90.033495
0.335965 216.58 89.855038
0.336244 64.99 89.595399
0.336522 94.58 89.738955
0.336801 286.09 89.134688
0.337079 331.82 89.746344
0.337358 228.71 89.55519
0.337637 205.41 89.745845
0.337915 151.81 89.943191
0.338194 334.1 89.108194
0.338472 257.47 89.511373
0.338751 244.93 89.255763
0.339029 266.02 89.082943
0.339308 305.4 89.234391
0.339587 239.13 88.326062
0.339865 355.25 89.22447
0.340144 282.69 89.028775
0.340422 240.31 88.59534
0.340701 491.91 88.814064
0.340979 177.63 88.7042
0.341258 346.63 88.592375
0.341537 233.61 88.184537
0.341815 238.25 88.767245
0.342094 349.55 88.712282
0.342372 273.36 88.736555
0.342651 323.63 88.47048
0.342929 328.63 88.441499
0.343208 130.6 88.245201
0.343487 326.21 88.430745
0.343765 388.83 87.888392
0.344044 215.41 87.627144
0.344322 203.5 87.943582
0.344601 397.07 88.111998
0.344879 294.91 87.951334
0.345158 264.84 87.799981
0.345436 194.23 87.436946
0.345715 399.75 88.079958
0.345994 244.69 87.408136
0.346272 184.82 87.72372
0.346551 324.19 87.618198
0.346829 134.48 87.319694
0.347108 213.09 87.929674
0.347386 324.19 87.096392
0.347665 238.29 87.728607
0.347944 253.84 87.077749
0.348222 315.21 87.055901
0.348501 407.32 87.852198
0.348779 274.29 87.174838
0.349058 384.97 87.232848
0.349336 156.44 87.874969
0.349615 150.36 87.020083
0.349894 222.7 87.617296
0.350172 283.02 87.100198
0.350451 76 87.701833
0.350729 298.29 87.476484
0.351008 311.25 87.121228
0.351286 427.83 87.360733
0.351565 333.47 86.993503
0.351844 311.68 87.694984
0.352122 185.35 87.248393
0.352401 276.56 87.246513
0.352679 344.13 87.379034
0.352958 270.61 86.758835
0.353236 309.1 87.37383
0.353515 519.49 87.042673
0.353794 191.9 87.054142
0.354072 275.69 87.247813
0.354351 261.57 87.147571
0.354629 220.96 87.191448
0.354908 184.37 87.639739
0.355186 428.89 86.898272
0.355465 238.43 87.124358
0.355744 331.8 86.984734
0.356022 308.19 87.15956
0.356301 432.64 87.350689
0.356579 204.12 86.875379
0.356858 246.23 87.297271
0.357136 65.92 87.082326
0.357415 174.23 86.839075
0.357694 421.56 87.450167
0.357972 247.19 86.897269
0.358251 124.01 87.110708
0.358529 321.83 87.381076
0.358808 267.33 87.141893
0.359086 305.57 87.357185
0.359365 272.42 86.831689
0.359644 277.87 87.30277
0.359922 207.43 87.242287
0.360201 308.77 87.044187
0.360479 324.32 87.422232
0.360758 274.6 86.782673
0.361036 277.47 86.789107
0.361315 406.59 87.201813
0.361594 354.56 86.982689
0.361872 119.87 87.063746
0.362151 350.64 87.064901
0.362429 353.01 86.78342
0.362708 363.86 86.979917
0.362986 276.15 86.705561
0.363265 326.46 87.305988
0.363544 202.13 86.869524
0.363822 289.46 86.745093
0.364101 400.27 87.051447
0.364379 388.65 86.448974
0.364658 316.63 87.13454
0.364936 399.06 86.419038
0.365215 256.02 86.42371
0.365494 272.17 87.039499
0.365772 362.69 87.078584
0.366051 365.64 87.113316
0.366329 202 86.615476
0.366608 390.28 86.98796
0.366886 262.51 86.589226
0.367165 331.09 86.481698
0.367444 311.07 86.574956
0.367722 364.99 86.574625
0.368001 317.22 86.450079
0.368279 230.35 87.155434
0.368558 205.41 86.635433
0.368836 284.12 87.081337
0.369115 334.75 86.930209
0.369394 178.94 86.961315
0.369672 320.36 86.654472
0.369951 127.7 86.879455
0.370229 375.76 87.310209
0.370508 218.57 87.012665
0.370786 131.35 87.329149
0.371065 155.04 86.938848
0.371344 367.99 86.649628
0.371622 260.19 87.150611
0.371901 250.3 87.080926
0.372179 361.95 86.561007
0.372458 305.73 87.135741
0.372736 287.09 86.947851
0.373015 351.28 86.95931
0.373294 353.7 88.120035
0.373572 346.9 88.850386
0.373851 415.74 89.494504
0.374129 363.11 89.833562
0.374408 252.75 90.88895
0.374686 439.26 90.968223
0.374965 326.73 90.809704
0.375244 419.34 92.15325
0.375522 124.35 91.620053
0.375801 241.31 92.003126
0.376079 480.28 92.060482
0.376358 332.96 92.314126
0.376636 268.73 92.949285
0.376915 463.39 92.379117
0.377194 290.27 93.025282
0.377472 355.99 93.421088
0.377751 178.76 93.16586
0.378029 321.3 94.441575
0.378308 283.55 93.506674
0.378586 173.74 94.152377
0.378865 232.98 94.861181
0.379144 216.02 94.137928
0.379422 431.37 94.933661
0.379701 118.56 94.956638
0.379979 307.03 94.272867
0.380258 246.79 93.420125
0.380536 393.46 92.222749
0.380815 300.13 92.12801
0.381093 398.24 92.220526
0.381372 331.89 91.934716
0.381651 355.31 91.457756
0.381929 337.59 90.851362
0.382208 264.05 90.772313
0.382486 218.63 90.811467
0.382765 362.68 90.645512
0.383043 335.67 90.958957
0.383322 334.78 90.903
0.383601 342.29 90.776675
0.383879 403.59 90.546606
0.384158 384.33 90.199727
0.384436 314.2 89.954278
0.384715 228.99 90.676381
0.384993 165.97 89.704006
0.385272 303.91 89.644646
0.385551 331.09 89.66928
0.385829 565.87 89.262312
0.386108 373.91 90.125366
0.386386 428.19 89.21581
0.386665 273.27 89.795607
0.386943 370.46 89.261933
0.387222 278.18 89.590348
0.387501 338.37 89.297912
0.387779 427.13 89.215167
0.388058 284.35 89.64031
0.388336 283.68 89.052753
0.388615 276.12 88.953985
0.388893 381.06 89.200796
0.389172 283.6 88.511539
0.389451 411.2 89.46754
0.389729 174.33 88.429124
0.390008 173.44 88.801209
0.390286 337.57 88.602419
0.390565 308.61 88.437509
0.390843 166.76 88.760766
0.391122 279.67 88.15692
0.391401 264.11 88.6455
0.391679 482.21 88.460523
0.391958 418.77 88.167855
0.392236 296.7 88.655905
0.392515 396.62 87.990095
0.392793 262.52 88.399761
0.393072 310.38 88.571817
0.393351 288.04 87.914604
0.393629 294.48 88.143053
0.393908 197.3 87.690193
0.394186 282.65 88.54419
0.394465 361.37 88.170825
0.394743 326.22 88.045876
0.395022 322.51 88.363738
0.395301 508.98 88.311992
0.395579 201.8 88.40723
0.395858 356.05 88.13362
0.396136 415.76 89.022564
0.396415 344.74 88.419099
0.396693 356.97 88.545154
0.396972 132.76 88.728727
0.397251 381.72 88.3456
0.397529 109.54 88.906306
0.397808 348.98 89.085112
0.398086 243.29 88.390241
0.398365 370.15 88.951795
0.398643 188.4 88.307075
0.398922 107.55 88.736787
0.399201 443.03 88.844841
0.399479 282.48 88.668013
0.399758 271.39 88.506861
0.400036 169.32 88.532157
0.400315 414 88.659718
0.400593 459.09 88.745607
0.400872 273.89 88.409773
0.401151 391.66 88.948453
0.401429 259.43 88.431523
0.401708 253.42 88.930355
0.401986 413.94 89.101881
0.402265 324.15 88.847222
0.402543 282.7 88.877438
0.402822 334.03 88.72792
0.403101 311.68 88.731821
0.403379 488.61 88.452727
0.403658 329.96 89.087065
0.403936 246.14 88.303871
0.404215 395.94 89.114276
0.404493 454.16 88.902674
0.404772 461.93 88.77105
0.405051 302.71 88.768279
0.405329 344.2 88.822102
0.405608 300.07 89.427762
0.405886 257.24 88.803004
0.406165 252.31 89.231234
0.406443 254.49 88.426301
0.406722 344.05 88.790405
0.407001 97.6 89.231502
0.407279 257.31 88.867498
0.407558 260.65 88.99872
0.407836 426.28 88.984799
0.408115 492.07 88.447409
0.408393 368.36 89.219715
0.408672 371.73 88.512269
0.408951 335.61 88.869387
0.409229 332.55 88.755676
0.409508 352.11 88.585702
0.409786 356.71 88.647979
0.410065 288.34 88.23153
0.410343 386.34 89.09885
0.410622 347.25 88.810794
0.410901 245.39 88.324595
0.411179 222.66 88.516565
0.411458 420.4 88.122856
0.411736 345.83 88.818755
0.412015 457.25 88.912625
0.412293 188.13 88.902736
0.412572 336.29 88.755102
0.412851 356.99 88.434373
0.413129 445.48 88.561332
0.413408 366.8 88.744878
0.413686 408.54 89.04847
0.413965 231.93 88.846088
0.414243 152.96 89.123076
0.414522 348.67 88.273783
0.414801 420.39 88.50557
0.415079 298.59 88.598212
0.415358 182.17 88.524111
0.415636 381.26 88.753881
0.415915 259.06 88.120042
0.416193 392.02 88.323324
0.416472 339.61 88.296505
0.416751 274.34 87.923327
0.417029 357.56 89.112103
0.417308 453.47 88.278769
0.417586 356.96 87.94555
0.417865 337.04 88.50437
0.418143 404.78 87.851664
0.418422 370.11 88.602819
0.4187 196.63 87.996863
0.418979 354.34 88.492168
0.419258 342.24 88.538399
0.419536 130.53 87.781023
0.419815 276.97 88.42305
0.420093 296.72 88.097847
0.420372 323.65 88.432386
0.42065 167.4 88.426514
0.420929 207.89 88.316921
0.421208 443.5 88.599358
0.421486 253.95 88.131758
0.421765 285.52 88.45775
0.422043 463.55 88.526651
0.422322 206.93 88.760424
0.4226 270.72 88.684645
0.422879 342.11 88.355028
0.423158 155.23 89.012406
0.423436 175.33 88.580855
0.423715 385.06 88.828787
0.423993 212.18 88.819127
0.424272 243.2 88.779464
0.42455 366.61 88.569056
0.424829 271.9 88.770387
0.425108 332.85 88.6141
0.425386 346 88.814127
0.425665 505.07 88.831628
0.425943 439.53 88.717733
0.426222 373.74 88.727361
0.4265 398.94 88.634506
0.426779 338.19 88.957509
0.427058 312.56 88.804148
0.427336 348.17 88.45438
0.427615 356.54 89.271771
0.427893 301.62 88.874299
0.428172 347.29 89.117835
0.42845 272.5 89.085114
0.428729 320.41 88.672484
0.429008 466.21 88.996977
0.429286 457.61 88.620833
0.429565 370.28 89.08838
0.429843 282.6 88.898514
0.430122 365.47 88.971377
0.4304 335.32 88.890985
0.430679 478.85 88.612058
0.430958 318.05 89.011144
0.431236 120.21 88.790895
0.431515 344.02 88.950276
0.431793 389.36 89.338315
0.432072 423.2 88.513399
0.43235 338.38 90.22463
0.432629 214.13 91.346689
0.432908 227.41 92.416392
0.433186 346.8 93.406659
0.433465 345.36 92.979486
0.433743 370.12 94.44146
0.434022 398.56 93.76495
0.4343 292.09 94.904622
0.434579 325.29 95.343456
0.434858 468.79 94.828473
0.435136 189.1 95.587177
0.435415 172.21 96.212479
0.435693 382.54 96.343876
0.435972 312.62 97.878243
0.43625 272.63 96.601267
0.436529 372.85 97.839195
0.436808 263.13 98.184592
0.437086 270.29 97.908636
0.437365 366.21 98.95511
0.437643 164.2 98.561312
0.437922 490.3 99.480438
0.4382 406.3 99.434861
0.438479 252.63 99.93919
0.438758 373.81 100.27155
0.439036 248.26 97.928843
0.439315 116.94 96.882225
0.439593 257.32 96.486159
0.439872 347.17 95.931856
0.44015 255.58 95.721499
0.440429 325.71 94.758487
0.440708 421.72 94.523707
0.440986 374.65 95.03491
0.441265 223.81 94.654904
0.441543 316.53 94.455847
0.441822 370.34 94.805074
0.4421 403.78 94.228306
0.442379 347.52 94.283209
0.442658 461.63 93.78121
0.442936 226.77 93.773726
0.443215 266.68 93.983216
0.443493 183.23 93.722637
0.443772 178.93 93.591589
0.44405 185.42 93.044765
0.444329 378.78 93.67571
0.444608 242.69 93.440365
0.444886 246.01 93.689187
0.445165 364.02 93.075328
0.445443 258.2 93.746414
0.445722 355.06 92.837371
0.446 453 93.783483
0.446279 234.03 93.116138
0.446558 314.7 93.140118
0.446836 239.33 93.180319
0.447115 342.69 92.91154
0.447393 447.3 93.549335
0.447672 167.91 92.759316
0.44795 147.67 92.940777
0.448229 211.17 92.686847
0.448508 309.23 92.190174
0.448786 229.48 92.838428
0.449065 358.8 92.684608
0.449343 320.99 92.026966
0.449622 347.85 92.358467
0.4499 106.87 92.139468
0.450179 366.96 92.565341
0.450458 103.33 92.100678
0.450736 284.57 92.534854
0.451015 245.3 91.583049
0.451293 389.79 92.177522
0.451572 330.56 91.831326
0.45185 307.32 92.174515
0.452129 268.87 91.953448
0.452408 355.47 91.695624
0.452686 290.03 91.972214
0.452965 204.07 91.385411
0.453243 342.73 92.197039
0.453522 367.77 91.598981
0.4538 496.25 92.029544
0.454079 412.75 92.089557
0.454357 478.3 91.54255
0.454636 211.44 91.627292
0.454915 309.48 91.956261
0.455193 216.02 91.049361
0.455472 417.25 91.872181
0.45575 326.06 91.411388
0.456029 384.21 91.759777
0.456307 172.41 91.767099
0.456586 435.79 91.418199
0.456865 275.44 91.635511
0.457143 425.91 91.247511
0.457422 243.76 91.798913
0.4577 541.93 91.486422
0.457979 438.15 91.553614
0.458257 424.94 91.877095
0.458536 440.25 91.705561
0.458815 311.72 91.72415
0.459093 334.54 91.441269
0.459372 248.38 91.276301
0.45965 435.27 91.758475
0.459929 364.25 91.066609
0.460207 348.23 91.81928
0.460486 287.95 91.380136
0.460765 445.93 91.836284
0.461043 275.41 91.631347
0.461322 190.95 91.592701
0.4616 331.67 91.677521
0.461879 203.1 91.116994
0.462157 277.37 91.966413
0.462436 326.9 91.625613
0.462715 293.05 91.377119
0.462993 398.49 91.860328
0.463272 381.98 91.147427
0.46355 166.83 91.94157
0.463829 181.02 91.041438
0.464107 305.85 91.473193
0.464386 262.51 91.693425
0.464665 306.52 90.840597
0.464943 320.65 91.884577
0.465222 419.41 91.186488
0.4655 260.84 91.662282
0.465779 376.12 91.612982
0.466057 340.41 91.07874
0.466336 373.15 91.743508
0.466615 286.05 91.132923
0.466893 400.22 92.004169
0.467172 88.19 91.062678
0.46745 396.78 91.527235
0.467729 374.54 91.731487
0.468007 382.1 91.122022
0.468286 292.49 91.394413
0.468565 297.32 91.633632
0.468843 370.24 91.256747
0.469122 123.58 91.400517
0.4694 330.27 90.688006
0.469679 330.05 91.767967
0.469957 297.34 90.573675
0.470236 317.47 91.541656
0.470515 467.61 91.429201
0.470793 282.21 91.174232
0.471072 260.86 91.386554
0.47135 299.75 91.345021
0.471629 349.54 91.220036
0.471907 341.88 90.807132
0.472186 346 91.36482
0.472465 220.41 91.000997
0.472743 479.34 91.666311
0.473022 329.52 90.919246
0.4733 364.86 91.069372
0.473579 479.41 91.283882
0.473857 326.89 91.45168
0.474136 364.02 91.405539
0.474415 146.86 91.882384
0.474693 210.75 90.994079
0.474972 224.32 91.546968
0.47525 285.76 91.139449
0.475529 234.89 91.559128
0.475807 373.21 91.867753
0.476086 443.38 91.239604
0.476365 459.08 92.216383
0.476643 244 91.39929
0.476922 265.09 91.76227
0.4772 276.91 91.850506
0.477479 454.11 91.283731
0.477757 189.34 91.805619
0.478036 247.38 91.221148
0.478315 370.64 92.129643
0.478593 381.83 91.184469
0.478872 318.13 91.534491
0.47915 287.85 92.168871
0.479429 360.43 90.997282
0.479707 238 91.944935
0.479986 524.63 91.730027
0.480265 366.73 91.788895
0.480543 217.13 91.589089
0.480822 252.15 91.444294
0.4811 423.99 92.134442
0.481379 320.82 91.401109
0.481657 467.76 91.537437
0.481936 260.3 91.427729
0.482215 299.51 91.475962
0.482493 386.36 91.458554
0.482772 534.24 91.193078
0.48305 403.3 91.874468
0.483329 296.92 91.776014
0.483607 238.5 91.384642
0.483886 372.86 91.52891
0.484165 504.81 91.194774
0.484443 225.3 91.358757
0.484722 352.2 91.285055
0.485 356.39 91.46355
0.485279 126.37 91.106753
0.485557 255.88 91.524364
0.485836 420.12 91.6139
0.486115 318.9 91.319777
0.486393 312.88 91.219368
0.486672 145.79 91.31716
0.48695 346.54 91.125688
0.487229 389.66 91.699028
0.487507 162.77 90.926858
0.487786 215.03 91.322089
0.488065 368.91 90.748454
0.488343 319.46 91.52103
0.488622 314.63 91.3856
0.4889 413.26 90.983015
0.489179 168.61 91.439416
0.489457 362.91 91.161275
0.489736 409.65 91.596931
0.490014 409.03 90.932453
0.490293 334.62 91.204846
0.490572 255.73 91.293645
0.49085 328.37 90.123709
0.491129 407.47 91.373144
0.491407 208.94 92.073984
0.491686 274.08 93.877659
0.491964 314.73 94.770902
0.492243 306.9 94.454361
0.492522 485.8 96.13046
0.4928 384.51 96.073461
0.493079 533.11 96.858166
0.493357 268.03 96.724918
0.493636 426.04 97.004367
0.493914 261.75 98.414093
0.494193 346.57 97.128728
0.494472 376.61 98.743033
0.49475 233.56 98.654776
0.495029 258.49 98.638101
0.495307 368.01 100.43596
0.495586 194.68 99.63325
0.495864 445.26 100.62968
0.496143 384.78 100.60944
0.496422 373.73 100.93684
0.4967 311.26 102.11991
0.496979 292.29 101.43156
0.497257 346.05 102.28711
0.497536 115.19 102.72584
0.497814 381.36 102.99277
0.498093 404.37 101.55304
0.498372 201.74 99.884895
0.49865 124.09 99.534196
0.498929 372.68 98.562461
0.499207 387.4 98.206172
0.499486 357.21 98.056241
0.499764 377.52 97.730173
0.500043 307.03 97.424867
0.500322 322.98 97.518768
0.5006 336.1 96.970114
0.500879 276.2 96.836133
0.501157 390.75 96.816115
0.501436 429.76 96.331839
0.501714 392.24 96.51787
0.501993 271.08 96.735998
0.502272 270.97 95.831646
0.50255 308.31 96.315025
0.502829 351.84 95.429969
0.503107 331.08 96.11374
0.503386 253.17 96.107556
0.503664 365.77 95.089195
0.503943 257.73 96.059118
0.504222 243.34 94.919392
0.5045 320.04 95.949193
0.504779 359.45 95.482816
0.505057 269.74 95.33288
0.505336 202.64 95.490471
0.505614 436.48 95.183629
0.505893 376.07 95.496373
0.506172 438.21 94.478976
0.50645 453.96 95.272117
0.506729 277.27 95.523998
0.507007 229.09 94.493045
0.507286 271.88 95.327051
0.507564 329.89 94.764228
0.507843 297.76 95.110023
0.508122 336.26 95.446771
0.5084 338.75 94.92473
0.508679 376.56 95.671032
0.508957 470.34 94.555487
0.509236 356.05 95.040644
0.509514 142.06 94.944281
0.509793 504.08 94.864246
0.510072 376.21 95.039662
0.51035 336.2 94.367661
0.510629 246.62 95.112642
0.510907 472.34 95.101993
0.511186 278.22 94.310567
0.511464 331.29 94.824547
0.511743 363.62 94.833164
0.512022 331.92 95.034012
0.5123 429.53 94.404267
0.512579 266.42 94.92643
0.512857 253.53 94.446104
0.513136 305.43 94.363377
0.513414 529.36 94.992773
0.513693 365.12 94.714896
0.513972 460.39 95.147019
0.51425 275.34 94.205453
0.514529 288.9 94.720055
0.514807 240.37 94.917903
0.515086 265.09 94.615669
0.515364 459.95 94.326394
0.515643 506.39 94.324935
0.515922 383.59 94.318992
0.5162 425.83 94.371429
0.516479 518.55 94.66274
0.516757 420.23 94.550357
0.517036 242.15 94.301353
0.517314 455.73 94.730871
0.517593 393.2 94.528926
0.517872 411.81 94.027003
0.51815 503.28 94.581063
0.518429 436.13 94.225208
0.518707 193.66 94.529656
0.518986 176.91 94.352943
0.519264 329.92 94.616766
0.519543 299.37 94.2553
0.519822 284.4 94.100941
0.5201 404.87 94.154193
0.520379 397.43 94.092813
0.520657 119.7 94.430871
0.520936 303.05 94.487695
0.521214 380.18 94.574026
0.521493 311.18 93.95247
0.521772 324.98 94.066212
0.52205 329.03 94.424537
0.522329 244.43 94.451464
0.522607 273 93.676025
0.522886 371.21 94.558658
0.523164 347.59 94.056757
0.523443 368.23 94.586542
0.523722 276.74 93.927782
0.524 318.37 94.135631
0.524279 397.43 93.779011
0.524557 378.55 94.254186
0.524836 297.11 93.620982
0.525114 354.23 93.526213
0.525393 302.63 93.526919
0.525671 368.43 93.407162
0.52595 391.49 93.228305
0.526229 396.61 93.784547
0.526507 287.9 93.547349
0.526786 367.11 93.176576
0.527064 410.53 93.430443
0.527343 220.84 93.018439
0.527621 378.48 93.017762
0.5279 434.9 93.8895
0.528179 180.74 92.675552
0.528457 248 93.315969
0.528736 293.19 93.415195
0.529014 474.31 93.328349
0.529293 593.21 93.526278
0.529571 416.21 93.527252
0.52985 248.11 93.224811
0.530129 428.97 93.505604
0.530407 330.4 93.313967
0.530686 449.91 93.596843
0.530964 302.5 93.629894
0.531243 424.07 93.3267
0.531521 228.09 93.657772
0.5318 455.8 92.983506
0.532079 375.31 93.555877
0.532357 348.06 93.878777
0.532636 371.37 93.42356
0.532914 516.33 93.939963
0.533193 334.01 93.456412
0.533471 420.65 93.444097
0.53375 357.27 93.546751
0.534029 282.19 93.846863
0.534307 329.77 93.81867
0.534586 278.19 93.179039
0.534864 251.62 93.471369
0.535143 436.24 93.600806
0.535421 229.86 93.518416
0.5357 511.06 93.825187
0.535979 395.27 93.164946
0.536257 301.33 93.536483
0.536536 404.58 93.553441
0.536814 188.91 93.122145
0.537093 114.02 93.517435
0.537371 411.56 93.083202
0.53765 298.56 93.595564
0.537929 244.13 93.310402
0.538207 280.17 92.964403
0.538486 258.31 93.261978
0.538764 366.31 93.480847
0.539043 472.51 93.005571
0.539321 137.16 93.188753
0.5396 311.87 93.16464
0.539879 434.13 93.453235
0.540157 247.69 92.712791
0.540436 187.89 93.231166
0.540714 402.67 92.918468
0.540993 310.37 92.99276
0.541271 429.54 93.105354
0.54155 339.7 92.614536
0.541829 206.22 93.127838
0.542107 393.5 92.501273
0.542386 359.43 93.009365
0.542664 352.53 92.993495
0.542943 393.46 92.725494
0.543221 358.56 92.721237
0.5435 311.35 92.776768
0.543779 392.65 92.423193
0.544057 374.43 92.559548
0.544336 406.05 92.282464
0.544614 386.55 92.801652
0.544893 420.96 92.686433
0.545171 203.16 92.584494
0.54545 396.05 92.527569
0.545729 369.47 92.593805
0.546007 518.15 92.726901
0.546286 507.31 92.691872
0.546564 334.04 92.523053
0.546843 467.95 92.454232
0.547121 327.86 92.515958
0.5474 309.97 92.588444
0.547679 243.43 93.329807
0.547957 374.48 92.322877
0.548236 169.58 92.63413
0.548514 346.73 92.385895
0.548793 257.09 92.815406
0.549071 359.18 92.744351
0.54935 285.01 92.937955
0.549629 415.14 93.08021
0.549907 470.32 92.660467
0.550186 455.89 92.842733
0.550464 382.95 94.805865
0.550743 500.12 95.745666
0.551021 453.14 97.436885
0.5513 323.7 97.837023
0.551579 406.86 98.563692
0.551857 257.99 99.430083
0.552136 401.58 99.126717
0.552414 265.9 99.855327
0.552693 408.69 100.80476
0.552971 473.46 101.27679
0.55325 260.2 101.07713
0.553529 352.61 101.93768
0.553807 419.94 102.49915
0.554086 244.01 102.77894
0.554364 290.37 103.46265
0.554643 351.67 104.11125
0.554921 514.17 104.06998
0.5552 522.5 104.62893
0.555479 214.44 104.98602
0.555757 405.82 105.26431
0.556036 376.41 106.00451
0.556314 451.41 106.63466
0.556593 181.32 106.75865
0.556871 192.72 106.42948
0.55715 464.94 104.47637
0.557429 447.13 103.54127
0.557707 259.54 103.12915
0.557986 119.78 101.8757
0.558264 438.91 101.60067
0.558543 293.94 100.15415
0.558821 433.54 101.11249
0.5591 283.35 100.66677
0.559379 284.73 100.22049
0.559657 236.2 99.943445
0.559936 260.61 99.849187
0.560214 323.09 99.748279
0.560493 282.02 99.505109
0.560771 281.38 98.969807
0.56105 517.88 99.197384
0.561329 304.3 99.16374
0.561607 158.19 98.995868
0.561886 321.97 98.592013
0.562164 419.28 99.006036
0.562443 370.14 98.84898
0.562721 175.79 98.040191
0.563 362.29 98.228762
0.563278 274.19 97.903092
0.563557 390.33 98.635645
0.563836 305.46 98.164894
0.564114 389.03 97.848129
0.564393 274.64 97.868452
0.564671 285.54 98.208054
0.56495 348.62 97.506181
0.565228 310.59 98.50931
0.565507 124.65 97.669006
0.565786 409.52 97.992969
0.566064 216.38 98.420967
0.566343 316.09 98.099542
0.566621 509.27 97.93579
0.5669 162.27 97.979095
0.567178 511.35 97.805261
0.567457 230.26 97.694102
0.567736 529.5 97.391775
0.568014 105.05 97.558172
0.568293 330.07 97.552219
0.568571 214.05 97.067358
0.56885 350.32 97.494271
0.569128 273.36 97.077207
0.569407 347.77 97.474044
0.569686 404.01 97.00302
0.569964 189.41 96.555095
0.570243 470.16 97.000403
0.570521 522.85 97.046697
0.5708 395.12 96.857611
0.571078 228.71 96.381155
0.571357 549.54 96.094131
0.571636 417.82 96.871312
0.571914 361.67 96.769627
0.572193 392.4 96.066114
0.572471 355.04 96.375826
0.57275 198.49 96.268125
0.573028 375.48 96.272952
0.573307 258.26 96.551224
0.573586 329.24 96.460313
0.573864 330 96.667207
0.574143 300.94 96.155343
0.574421 387.66 96.27763
0.5747 326.26 96.446548
0.574978 372.89 95.828076
0.575257 304.18 96.746845
0.575536 273.12 96.214794
0.575814 283.41 96.209545
0.576093 496.89 96.446797
0.576371 414.9 95.948262
0.57665 189.34 96.80934
0.576928 362.96 96.156854
0.577207 106.06 95.884075
0.577486 200.17 96.252996
0.577764 257.57 96.336628
0.578043 324.06 96.072325
0.578321 237.71 96.300556
0.5786 226.34 96.046032
0.578878 409.58 96.316163
0.579157 273.53 95.904747
0.579436 505.79 96.252517
0.579714 399.95 95.54169
0.579993 319.78 95.714674
0.580271 275.35 95.91185
0.58055 410.39 95.669761
0.580828 307.23 95.537732
0.581107 407.03 95.656235
0.581386 341.6 95.973657
0.581664 361.98 95.350256
0.581943 289.65 95.595763
0.582221 298.52 95.840969
0.5825 281.35 95.57989
0.582778 416.33 95.848117
0.583057 216.17 95.710395
0.583336 380.6 95.578273
0.583614 399.76 95.772622
0.583893 379.93 95.571259
0.584171 398.3 95.513786
0.58445 286.51 95.492483
0.584728 372.69 95.587059
0.585007 348.3 95.822814
0.585286 195.51 95.691926
0.585564 345.1 95.329186
0.585843 329.74 95.733132
0.586121 346.78 95.12812
0.5864 362.66 96.06245
0.586678 416.42 95.374402
0.586957 283.35 95.342683
0.587236 389.85 95.15496
0.587514 350.83 95.983826
0.587793 372.98 95.383407
0.588071 297.03 95.074189
0.58835 503.53 95.539725
0.588628 321.87 95.56948
0.588907 431.68 95.141867
0.589186 372.76 95.05015
0.589464 331.3 95.629095
0.589743 478.86 95.453309
0.590021 438.98 95.420348
0.5903 367.62 94.437557
0.590578 359.38 95.428613
0.590857 96.65 94.68543
0.591136 315.97 94.664215
0.591414 408.93 94.564214
0.591693 290.75 94.869392
0.591971 283.68 94.888074
0.59225 228.11 94.844126
0.592528 305.64 95.175701
0.592807 226.05 94.760666
0.593086 145.74 95.055567
0.593364 236.35 94.773608
0.593643 315.66 94.510161
0.593921 301.73 94.677232
0.5942 171.82 94.928172
0.594478 352.93 94.934883
0.594757 355.34 94.701425
0.595036 231 94.76831
0.595314 393.49 94.945405
0.595593 447.89 94.997709
0.595871 321.65 94.903235
0.59615 368.11 94.707139
0.596428 145.87 95.070691
0.596707 237.94 95.118684
0.596986 303.63 94.533293
0.597264 322.71 94.445125
0.597543 498.33 94.796526
0.597821 163.74 94.632152
0.5981 385.68 94.231236
0.598378 418.44 94.64129
0.598657 283.19 94.423413
0.598935 238.08 94.520252
0.599214 305.56 94.841841
0.599493 332.93 94.988889
0.599771 383.15 93.942439
0.60005 422.95 94.801163
0.600328 327.8 94.316066
0.600607 270.04 95.090722
0.600885 377.64 94.391853
0.601164 442.53 94.584925
0.601443 304.25 94.636324
0.601721 258.87 94.323739
0.602 305.05 94.743897
0.602278 346.18 94.915118
0.602557 248.44 94.343711
0.602835 407.25 95.067434
0.603114 437.53 94.801705
0.603393 223.19 94.940721
0.603671 466.24 95.303348
0.60395 308.75 94.445942
0.604228 326.38 95.108748
0.604507 449.1 94.617465
0.604785 341.14 95.158757
0.605064 237.57 95.000797
0.605343 344.1 95.209497
0.605621 334.1 94.836858
0.6059 365.27 95.199251
0.606178 177.35 95.443376
0.606457 520.07 94.721759
0.606735 194.95 94.793094
0.607014 498.08 94.840908
0.607293 239.32 95.171232
0.607571 353.99 94.53457
0.60785 192.13 94.853139
0.608128 438.49 94.875028
0.608407 272.57 95.337821
0.608685 375.73 95.101324
0.608964 356.29 94.659065
0.609243 417.82 94.86265
0.609521 363.49 97.060804
0.6098 325.52 98.50006
0.610078 342.54 99.906945
0.610357 530.3 99.952289
0.610635 295.48 101.00439
0.610914 256.69 101.53316
0.611193 454.24 102.69799
0.611471 398.89 102.7881
0.61175 300.32 103.25507
0.612028 250.75 104.51395
0.612307 321.86 104.88061
0.612585 376.94 104.73436
0.612864 442.59 105.11421
0.613143 339.48 106.13877
0.613421 229.02 106.55356
0.6137 405.47 107.00173
0.613978 224.49 107.15415
0.614257 310.62 107.51004
0.614535 345.56 108.24834
0.614814 350.04 108.6644
0.615093 390.05 108.91491
0.615371 278.09 109.31607
0.61565 418.13 109.71662
0.615928 339.08 110.55986
0.616207 167.93 107.90373
0.616485 200.71 105.47356
0.616764 444.08 104.95689
0.617043 380.43 103.99611
0.617321 268.3 103.18623
0.6176 420.45 103.32094
0.617878 360.1 103.00875
0.618157 356.35 102.23347
0.618435 377.38 102.38878
0.618714 364.47 101.79346
0.618993 326.46 101.85118
0.619271 271.98 101.13991
0.61955 454.47 102.23676
0.619828 332.56 101.04729
0.620107 305.35 101.31605
0.620385 282.72 100.81971
0.620664 261.38 100.46235
0.620943 416.74 100.35381
0.621221 358.84 100.36068
0.6215 413.41 100.64692
0.621778 369.63 100.70872
0.622057 467.76 100.05795
0.622335 105.74 100.37411
0.622614 306.63 100.67078
0.622893 181.24 99.609453
0.623171 197.97 100.45345
0.62345 386.68 99.93756
0.623728 285.42 100.07607
0.624007 279.5 99.925499
0.624285 239.03 99.970551
0.624564 238.55 99.983509
0.624843 275.75 99.769974
0.625121 396.41 99.832883
0.6254 252 99.826487
0.625678 317.65 99.037529
0.625957 330.4 99.767232
0.626235 283.85 100.06008
0.626514 329.92 98.999217
0.626793 198.09 99.835521
0.627071 340.4 99.059904
0.62735 310.21 99.588759
0.627628 296.48 99.239835
0.627907 412.98 98.899584
0.628185 284.91 98.986971
0.628464 380.88 99.428279
0.628743 188.2 98.700284
0.629021 267.79 99.299525
0.6293 356 98.511818
0.629578 232.71 98.869131
0.629857 295.71 98.98216
0.630135 412.56 99.258631
0.630414 425.49 98.50524
0.630693 320.73 99.308197
0.630971 288.33 99.339516
0.63125 143.46 99.013224
0.631528 400.37 98.737866
0.631807 264.22 98.632731
0.632085 210.32 98.43716
0.632364 436.45 99.091673
0.632643 454.05 98.940397
0.632921 464.14 98.502901
0.6332 256.31 98.777305
0.633478 153.73 98.81086
0.633757 381.29 98.989785
0.634035 277.97 98.511052
0.634314 158.22 98.470881
0.634592 365.98 98.705121
0.634871 267.46 98.49856
0.63515 339.72 98.652088
0.635428 160.09 99.011861
0.635707 166.1 98.089832
0.635985 506.61 98.751353
0.636264 321.74 97.992231
0.636542 352 98.148918
0.636821 90.1 98.950594
0.6371 366.81 97.797538
0.637378 335.01 97.524463
0.637657 286.19 97.961203
0.637935 368.8 97.770201
0.638214 146.85 98.108424
0.638492 236.77 97.264792
0.638771 316.65 97.607993
0.63905 333.13 97.660162
0.639328 181.07 97.594588
0.639607 356.66 97.88386
0.639885 126.44 97.162369
0.640164 188.23 97.237708
0.640442 220.57 97.117869
0.640721 287.93 96.914383
0.641 515.95 97.42784
0.641278 169.62 97.524131
0.641557 306.77 97.223839
0.641835 355.02 96.894333
0.642114 577.33 97.388325
0.642392 421.39 97.13649
0.642671 283.17 97.709814
0.64295 434.67 97.373924
0.643228 95.88 97.467979
0.643507 281.3 97.082381
0.643785 273.72 97.262945
0.644064 381.64 97.278401
0.644342 324.53 97.620534
0.644621 262.76 97.039207
0.6449 308.36 97.393581
0.645178 416.8 97.673267
0.645457 373.13 97.495787
0.645735 406.94 97.079282
0.646014 359.99 97.60821
0.646292 36.92 97.791591
0.646571 303.51 97.104839
0.64685 277.35 97.130531
0.647128 348.9 97.173009
0.647407 298.5 97.272049
0.647685 458.5 96.777933
0.647964 398.73 97.306066
0.648242 238.96 96.870142
0.648521 352.51 97.498534
0.6488 473.51 97.376364
0.649078 298.95 97.137333
0.649357 201.52 97.016869
0.649635 335.55 97.184196
0.649914 171.38 97.54179
0.650192 296.34 96.992602
0.650471 337.23 97.131601
0.65075 356.7 97.439169
0.651028 499.65 97.131762
0.651307 204.86 97.047259
0.651585 198.4 97.146509
0.651864 382.54 96.945545
0.652142 331.09 97.033639
0.652421 374 96.848332
0.6527 356.74 96.748839
0.652978 234.06 96.992985
0.653257 305.9 96.98809
0.653535 383.61 97.196906
0.653814 324.86 96.896144
0.654092 456.51 96.89727
0.654371 160.42 97.372082
0.65465 298 96.325536
0.654928 366.54 96.895865
0.655207 249.65 96.635627
0.655485 236.54 97.202145
0.655764 442.9 97.180907
0.656042 400.04 96.932646
0.656321 190.54 97.153612
0.6566 245.16 97.208823
0.656878 216.61 97.425974
0.657157 273.82 96.721733
0.657435 282.97 96.556549
0.657714 345.66 97.209058
0.657992 213.2 97.368883
0.658271 324.78 96.914303
0.65855 339.23 97.736813
0.658828 368.06 96.916426
0.659107 406.87 97.842785
0.659385 377.51 97.505101
0.659664 271.26 97.513616
0.659942 271.47 97.391617
0.660221 285.04 97.327505
0.6605 325.04 97.020814
0.660778 282.44 97.625663
0.661057 245.76 97.435789
0.661335 398.7 97.318328
0.661614 278.94 97.4018
0.661892 210.2 97.496108
0.662171 283.94 96.799929
0.66245 175.14 97.321953
0.662728 583.56 97.414942
0.663007 257.71 96.798123
0.663285 483.62 97.642135
0.663564 412.36 96.786931
0.663842 346.86 96.947457
0.664121 404.05 97.014475
0.6644 236.47 97.020186
0.664678 359.96 96.71692
0.664957 339.28 96.874844
0.665235 344.72 96.253703
0.665514 318 96.801777
0.665792 225.91 96.900403
0.666071 319.58 96.71846
0.66635 418.73 97.096304
0.666628 285.58 96.51189
0.666907 452.35 96.767732
0.667185 483.56 96.332969
0.667464 298.18 96.817223
0.667742 535.81 96.231551
0.668021 358.23 96.516954
0.6683 391.37 96.541099
0.668578 202.81 98.567891
0.668857 326.38 100.18194
0.669135 341.17 100.92304
0.669414 255.49 101.88089
0.669692 217.15 103.483
0.669971 258.97 103.10178
0.67025 271.41 104.43349
0.670528 343.04 104.1057
0.670807 326.85 105.8429
0.671085 206.19 106.53191
0.671364 202.76 107.07474
0.671642 333.9 107.30302
0.671921 232.84 108.11232
0.672199 189.58 109.38153
0.672478 201.58 109.00363
0.672757 286.12 109.27459
0.673035 330.16 111.06064
0.673314 437.82 110.62593
0.673592 395.66 110.5726
0.673871 266.1 111.99795
0.674149 387.54 112.28554
0.674428 283.64 113.27354
0.674707 92.19 113.28208
0.674985 351.91 113.92541
0.675264 316.96 114.28617
0.675542 282.92 114.91635
0.675821 292.85 115.12863
0.676099 57.1 115.37183
0.676378 256.98 115.94664
0.676657 477.45 117.55408
0.676935 173.42 117.60523
0.677214 369.2 117.27392
0.677492 251.74 118.34393
0.677771 114.62 118.64887
0.678049 530.52 120.56694
0.678328 331.23 119.29328
0.678607 271.87 120.59492
0.678885 306.3 120.64112
0.679164 549.81 121.38966
0.679442 274.48 121.4382
0.679721 348.33 122.6755
0.679999 287.62 122.65386
0.680278 466.23 123.74375
0.680557 136.19 123.77499
0.680835 372.25 125.33713
0.681114 343.58 125.4432
0.681392 444.09 124.76719
0.681671 364.02 125.37211
0.681949 132.06 126.79934
0.682228 423.28 126.19547
0.682507 264.74 127.27859
0.682785 398.4 127.16687
0.683064 -21.93 127.21877
0.683342 280.4 128.19155
0.683621 168.47 128.29983
0.683899 492.3 128.75628
0.684178 454.88 129.26208
0.684457 448.25 129.36757
0.684735 534.79 129.76833
0.685014 329.76 130.36189
0.685292 273.36 130.37683
0.685571 205.44 131.26758
0.685849 190.84 132.06108
0.686128 180.04 132.29759
0.686407 390.49 132.36976
0.686685 248.67 133.92518
0.686964 345.38 134.95404
0.687242 296.45 133.97105
0.687521 216.63 135.11188
0.687799 23.62 136.74583
0.688078 441.8 136.36514
0.688357 39.05 136.95518
0.688635 390.37 137.05807
0.688914 206.88 138.88875
0.689192 337.71 139.62163
0.689471 371.53 138.34197
0.689749 566.13 140.49425
0.690028 468.75 140.36524
0.690307 226.47 141.99918
0.690585 212.4 141.92409
0.690864 126.98 142.90501
0.691142 300.81 144.52494
0.691421 582.83 143.42357
0.691699 284.08 144.54586
0.691978 247.92 146.30276
0.692257 448.62 145.86232
0.692535 376.45 147.18631
0.692814 167.98 147.90408
0.693092 171.15 146.17582
0.693371 510.06 148.43504
0.693649 459.89 148.11457
0.693928 65.76 149.65114
0.694207 463.73 149.45806
0.694485 373.75 150.92946
0.694764 207 150.8791
0.695042 370.96 152.25547
0.695321 -56.59 152.07059
0.695599 397.93 154.00338
0.695878 273.89 153.32242
0.696157 559.42 155.93381
0.696435 51.47 155.04708
0.696714 282.94 155.71232
0.696992 261.82 159.09889
0.697271 348.01 157.70814
0.697549 533.09 158.34614
0.697828 -23.71 160.54762
0.698107 556.35 159.57037
0.698385 315.36 161.72056
0.698664 64.08 161.69315
0.698942 252.79 162.20391
0.699221 483.23 163.63833
0.699499 306.27 164.29494
0.699778 194.85 167.14627
0.700057 489.89 166.60867
0.700335 336.25 167.35503
0.700614 196.1 170.77712
0.700892 622.8 170.01263
0.701171 28.02 170.25418
0.701449 346.36 171.72649
0.701728 495.1 172.68645
0.702007 420.91 176.75782
0.702285 568.8 175.58015
0.702564 455.87 176.86064
0.702842 129.56 178.13144
0.703121 554.04 180.36435
0.703399 208.85 180.82119
0.703678 362.48 182.67589
0.703957 137.35 184.49294
0.704235 327.17 187.47545
0.704514 40.7 186.60152
0.704792 158.34 188.02897
0.705071 253.52 189.12275
0.705349 414.29 190.47822
0.705628 -260.93 195.03408
0.705907 671.93 192.39853
0.706185 398.05 197.03703
0.706464 263.59 197.09768
0.706742 369.29 198.90667
0.707021 369.55 197.93995
0.707299 387.79 199.5053
0.707578 458.63 200.28799
0.707856 319.96 201.28348
0.708135 -107.84 198.67615
0.708414 769.63 200.09392
0.708692 313.45 203.23361
0.708971 365.64 204.69028
0.709249 392.46 207.63916
0.709528 388.78 205.66413
0.709806 213.54 210.58373
0.710085 279.24 212.81643
0.710364 -177.06 215.66711
0.710642 332.57 214.22937
0.710921 178.27 219.22022
0.711199 59.74 221.22361
0.711478 156.5 225.22665
0.711756 -1.88 224.69831
0.712035 380.19 228.17023
0.712314 19.71 232.68315
0.712592 288.94 237.53964
0.712871 439.58 240.73977
0.713149 -209.1 237.6675
0.713428 -1.92 244.64634
0.713706 530.5 252.1552
0.713985 553.48 252.99709
0.714264 196.35 247.81417
0.714542 418.31 252.87692
0.714821 322 256.86223
0.715099 109.99 261.08822
0.715378 507.37 257.86242
0.715656 454.28 262.17936
0.715935 38.85 265.76447
0.716214 566.85 267.58874
0.716492 468.15 269.64072
0.716771 406.5 269.55638
0.717049 376.66 270.9186
0.717328 54.83 278.00223
0.717606 418.2 279.78368
0.717885 397.26 281.77489
0.718164 610.56 281.37293
0.718442 569.02 284.10809
0.718721 -93.4 293.74516
0.718999 206.44 281.81564
0.719278 2.78 296.4879
0.719556 424.14 296.20007
0.719835 306.19 303.59881
0.720114 -61.95 298.63694
0.720392 168.47 297.88423
0.720671 572.5 309.88412
0.720949 -20.16 320.53754
0.721228 263.68 307.53359
0.721506 103.5 314.39922
0.721785 11.83 322.4429
0.722064 97.81 325.50623
0.722342 136.26 324.66935
0.722621 214.37 330.11877
0.722899 582.32 340.11129
0.723178 1106.42 339.11573
0.723456 -405.39 351.18158
0.723735 -43.43 348.17132
0.724014 554.33 356.01347
0.724292 970.27 357.69724
0.724571 530.59 368.21717
0.724849 457.07 363.53895
0.725128 101.65 368.2507
0.725406 -359.93 385.80779
0.725685 732.83 388.18348
0.725964 348.31 401.47974
0.726242 -59.99 393.26183
0.726521 630.93 414.11598
0.726799 -175.25 412.26208
0.727078 275.11 426.03397
0.727356 253.7 440.05444
0.727635 702.92 445.5231
0.727914 -178.16 454.19737
0.728192 485.19 462.30415
0.728471 788.29 470.72891
0.728749 -130.04 490.97979
0.729028 -267.71 508.14296
0.729306 174.77 500.61023
0.729585 -129.05 538.39358
0.729864 244.31 561.12826
0.730142 824.95 591.2347
0.730421 381.35 580.90439
0.730699 1205.19 615.62567
0.730978 744.65 644.87368
0.731256 1017.04 669.79004
0.731535 -299.23 694.07796
0.731814 -705.27 763.14975
0.732092 -483.59 805.16369
0.732371 -365.28 873.18302
0.732649 38.48 983.98359
0.732928 -1039.24 1072.8041
0.733206 238.73 1283.6648

