# Q [1/Ã…] I(Q) [a.u.] dI(Q) [a.u.]
0.00223785 81046 26310.08
0.00251642 60254 20262.09
0.00279499 42401 14392.671
0.00307356 28981 11102.525
0.00335213 49662 8066.3646
0.0036307 49345 6752.5062
0.00390927 45170.5 5230.2876
0.00418784 43347.9 4446.8753
0.00446641 41867.5 3861.1742
0.00474498 42881.3 3341.4399
0.00502355 37054.3 2836.1832
0.00530212 39113.5 2513.376
0.00558069 39610.2 2170.4808
0.00585926 37798.7 2014.3822
0.00613783 37337.1 1778.4094
0.0064164 41870.4 1540.7072
0.00669497 41154.6 1521.4124
0.00697355 38290.49 1303.7451
0.00725212 39972.71 1256.9728
0.00753069 39159.57 1126.3134
0.00780926 39147.33 1063.15
0.00808783 39767.93 1042.2033
0.0083664 39368.45 954.678
0.00864497 41009.96 915.18351
0.00892354 38570.24 857.1699
0.00920211 38104.28 812.68773
0.00948068 39637.79 820.07
0.00975925 38255.31 750.02991
0.0100378 38704.72 733.97935
0.0103164 38569.92 706.82227
0.010595 39282.65 683.02686
0.0108735 38478.3 672.94865
0.0111521 38363.54 644.6387
0.0114307 38188.45 650.36648
0.0117092 38426.13 611.64812
0.0119878 38392.94 597.7301
0.0122664 39170.41 599.00947
0.012545 38748.73 571.54597
0.0128235 38690.52 574.33622
0.0131021 39028.99 559.49605
0.0133807 37511.84 540.08198
0.0136592 38653.26 537.92423
0.0139378 37776.99 519.20792
0.0142164 37690.38 520.41634
0.0144949 37973.41 510.22702
0.0147735 37699.63 502.48088
0.0150521 38276.73 495.80263
0.0153307 36405.41 480.35498
0.0156092 37794.36 480.96756
0.0158878 37528.37 477.14582
0.0161664 37805.42 463.72399
0.0164449 37025.33 466.4869
0.0167235 37162.33 451.12217
0.0170021 37344.43 449.2627
0.0172806 37275.37 446.94467
0.0175592 37302.83 442.57558
0.0178378 37858.45 436.55697
0.0181164 36951.28 426.17441
0.0183949 36642.83 425.33482
0.0186735 36543.5 419.63751
0.0189521 36273.8 425.20799
0.0192306 37406.37 434.15005
0.0195092 36579.62 429.55753
0.0197878 36591.16 424.94708
0.0200664 36385.27 427.29477
0.0203449 36484.25 427.42416
0.0206235 35704.1 424.72864
0.0209021 36046.3 421.67499
0.0211806 36820.11 421.91241
0.0214592 35637.91 423.06594
0.0217378 36182.11 416.49209
0.0220163 36250.89 418.32667
0.0222949 36284.65 418.35821
0.0225735 35571.86 412.96172
0.0228521 35863.48 411.40962
0.0231306 36284.23 409.61868
0.0234092 35006.13 408.9048
0.0236878 36224.56 413.87681
0.0239663 35236.57 401.81659
0.0242449 35326.2 403.60841
0.0245235 35497.87 400.17437
0.024802 34855.8 403.98289
0.0250806 34309.36 399.25053
0.0253592 34868.38 391.49581
0.0256378 34618.89 388.33779
0.0259163 35620.09 379.47133
0.0261949 34807.9 377.08102
0.0264735 34917.22 370.37928
0.026752 34469.9 358.85334
0.0270306 34883.15 362.72537
0.0273092 34453.22 358.63868
0.0275877 34519.59 352.44523
0.0278663 34280.91 350.16722
0.0281449 34011.75 345.03595
0.0284235 34257.98 347.76303
0.028702 34630.9 343.10824
0.0289806 34163.02 337.58947
0.0292592 33747.1 336.458
0.0295377 33310.41 331.61008
0.0298163 33655.63 329.03364
0.0300949 33119.72 324.93077
0.0303735 33685.19 324.57999
0.030652 33091.24 324.68049
0.0309306 33115.42 321.69684
0.0312092 32760.93 317.28132
0.0314877 32996.36 319.48975
0.0317663 32825.44 314.80876
0.0320449 32327.48 312.49518
0.0323234 32962.67 312.86929
0.032602 32166.35 306.13308
0.0328806 31712.24 305.48503
0.0331592 32076.23 303.78769
0.0334377 31950.81 303.33056
0.0337163 32775.13 308.16409
0.0339949 31792.75 305.2305
0.0342734 31970.28 313.02279
0.034552 31331.77 307.9857
0.0348306 31601.03 306.43735
0.0351091 31357.92 308.73172
0.0353877 30816.66 308.93356
0.0356663 30724.99 310.79602
0.0359449 31380.17 305.99123
0.0362234 30684.44 304.15963
0.036502 30710.31 306.79014
0.0367806 30834.19 305.4179
0.0370591 30679.91 310.05624
0.0373377 30567.66 302.84257
0.0376163 30648.72 304.415
0.0378949 30810.87 303.53167
0.0381734 30478.45 299.5128
0.038452 29966.52 304.03197
0.0387306 29928.73 297.47178
0.0390091 30435.98 304.10698
0.0392877 29573.68 299.07183
0.0395663 29800.47 295.05029
0.0398448 29891.41 298.47698
0.0401234 29803.28 297.63829
0.040402 29015.34 297.61199
0.0406806 29241.35 296.04716
0.0409591 28699.71 290.06582
0.0412377 28731.83 293.54624
0.0415163 29071.22 292.31797
0.0417948 29038.89 292.48687
0.0420734 28513.29 290.25337
0.042352 28583.83 290.1303
0.0426305 28180.87 294.75946
0.0429091 28423.65 292.28188
0.0431877 28449.67 296.18181
0.0434663 28366.15 294.68218
0.0437448 28122.06 301.08717
0.0440234 27121.69 298.39078
0.044302 27685.19 296.5081
0.0445805 27106.99 299.29845
0.0448591 27196.7 296.93767
0.0451377 27380.03 303.31189
0.0454163 26994.52 300.22879
0.0456948 27225.06 301.12401
0.0459734 26349.01 299.69403
0.046252 26790.03 302.75414
0.0465305 26137.71 294.46318
0.0468091 26418.36 294.68768
0.0470877 26804.83 292.00606
0.0473662 25930.87 287.77659
0.0476448 26105.72 286.9904
0.0479234 26238.41 283.34082
0.048202 25505.58 281.906
0.0484805 25564.95 280.82886
0.0487591 25416.51 277.24978
0.0490377 25232.02 277.81737
0.0493162 25332.4 273.00408
0.0495948 24528.48 273.3534
0.0498734 25040.09 270.86887
0.0501519 24723.06 271.10466
0.0504305 24691.85 273.86979
0.0507091 24241.23 269.55227
0.0509877 24668.61 271.71451
0.0512662 24720.06 270.59756
0.0515448 24124.54 267.26458
0.0518234 23817.86 269.1799
0.0521019 23781.45 265.71459
0.0523805 23775.17 267.55977
0.0526591 23818.51 267.51887
0.0529376 23855.97 264.24884
0.0532162 23520.38 266.99903
0.0534948 23406.42 264.17744
0.0537734 22666.82 263.26407
0.0540519 23128.3 260.07726
0.0543305 23120.2 261.02999
0.0546091 22973.82 260.95356
0.0548876 22608.82 254.4801
0.0551662 22767.27 256.56437
0.0554448 22341.84 255.26728
0.0557234 22365.63 251.26754
0.0560019 22459.59 255.17452
0.0562805 21944.28 249.84479
0.0565591 22040.26 250.66108
0.0568376 21808.05 250.40815
0.0571162 21699.47 247.69154
0.0573948 21737.31 249.28751
0.0576733 21375.96 245.60738
0.0579519 21346.63 247.07254
0.0582305 20900.59 245.59009
0.0585091 20978.37 244.23528
0.0587876 20826.54 244.53465
0.0590662 21108.27 244.38848
0.0593448 20676.45 243.20262
0.0596233 20840.8 240.85559
0.0599019 20386.67 240.65697
0.0601805 20554.85 242.96208
0.060459 20291.99 239.27747
0.0607376 19716.99 236.78218
0.0610162 20002.15 238.63867
0.0612948 19844.96 238.13814
0.0615733 19537.33 236.57358
0.0618519 19268.96 234.40083
0.0621305 19606.48 234.31902
0.062409 19797.84 234.51267
0.0626876 19254.62 235.61657
0.0629662 19078.55 232.80079
0.0632448 19429.04 233.37663
0.0635233 18804.62 231.07686
0.0638019 18620.35 230.78878
0.0640805 18886.73 232.17607
0.064359 18408.21 227.78068
0.0646376 18541.91 230.00099
0.0649162 18008.84 228.43109
0.0651947 17735.73 227.57708
0.0654733 18191.46 226.47093
0.0657519 18041.86 225.06764
0.0660305 17437.85 226.59353
0.066309 17511.5 223.82964
0.0665876 17304.23 224.03915
0.0668662 17321.4 221.81556
0.0671447 17223.35 221.25388
0.0674233 17380.42 222.63069
0.0677019 16566.25 219.94266
0.0679804 17030.98 221.3424
0.068259 16547.93 219.19864
0.0685376 17023.65 220.28065
0.0688162 16677.91 218.682
0.0690947 16347.42 215.69872
0.0693733 16684.19 219.04576
0.0696519 16386.11 216.84777
0.0699304 15982.15 216.17825
0.070209 16019.35 215.53042
0.0704876 16011.87 212.25495
0.0707662 15848.62 215.85869
0.0710447 15337.68 213.86219
0.0713233 15666.68 213.26221
0.0716019 15363.08 212.03783
0.0718804 15224.9 209.4999
0.072159 15291.06 211.11084
0.0724376 14885.16 208.94283
0.0727161 14795.53 208.95061
0.0729947 14804.16 208.90798
0.0732733 14968.07 209.11121
0.0735519 14638.46 207.23416
0.0738304 14555.67 207.38775
0.074109 14343.83 206.70073
0.0743876 13998.99 205.26011
0.0746661 14156.63 203.97723
0.0749447 14116.77 202.39866
0.0752233 13718.32 203.10976
0.0755018 14150.96 203.50351
0.0757804 13734.96 203.68934
0.076059 13602.77 202.50509
0.0763376 13649.21 202.36982
0.0766161 13444.68 200.362
0.0768947 13410.01 201.23951
0.0771733 12897.8 200.04834
0.0774518 13220.36 198.7583
0.0777304 13077.94 198.03525
0.078009 12992.57 204.55135
0.0782875 12514.89 202.47234
0.0785661 12470.31 204.04835
0.0788447 12689.32 204.23475
0.0791233 12037.96 205.13804
0.0794018 12368.83 209.9114
0.0796804 12444.64 205.21451
0.079959 12389.74 208.494
0.0802375 12097.85 207.34157
0.0805161 11937.78 208.92471
0.0807947 11447.27 210.04818
0.0810733 11782.34 208.24578
0.0813518 11902.62 211.19428
0.0816304 11480.92 210.12866
0.081909 11318.53 209.87867
0.0821875 11546.71 209.96539
0.0824661 11421.16 210.48411
0.0827447 11147.29 210.89357
0.0830232 11014.95 211.19912
0.0833018 11105.22 210.88169
0.0835804 11132.18 212.05368
0.083859 10706.16 209.86663
0.0841375 10871.09 213.16812
0.0844161 10147.54 208.9484
0.0846947 10317.29 206.30879
0.0849732 10278.68 204.53866
0.0852518 9888.71 200.75035
0.0855304 10449.68 200.36886
0.0858089 9931.95 196.97145
0.0860875 10207.18 198.17899
0.0863661 10159.71 196.97091
0.0866447 9478.23 194.45663
0.0869232 9701.82 194.39854
0.0872018 9503.52 193.99466
0.0874804 9477.26 193.26936
0.0877589 9902.68 191.30973
0.0880375 9291.11 189.87502
0.0883161 9542.02 189.98721
0.0885947 9234.29 190.05278
0.0888732 9148.99 188.85107
0.0891518 8844.91 185.9867
0.0894304 9074.65 186.2843
0.0897089 8937.9 185.79984
0.0899875 8792.24 184.3535
0.0902661 8559.9 183.51673
0.0905446 8638.99 182.62128
0.0908232 8627.77 182.11032
0.0911018 8274.58 181.284
0.0913804 8249.48 179.84896
0.0916589 8326.83 179.08445
0.0919375 8158.23 182.99872
0.0922161 8041.15 186.8272
0.0924946 8375.92 184.97647
0.0927732 8249.99 186.50207
0.0930518 7925.25 187.13745
0.0933303 8047.46 188.09104
0.0936089 7767.66 187.86561
0.0938875 7975.43 188.75805
0.0941661 7928.84 189.88207
0.0944446 7548.25 189.17558
0.0947232 7177.07 186.93757
0.0950018 7333.9 188.70083
0.0952803 7402.85 189.38548
0.0955589 7411.71 191.16691
0.0958375 6992.21 187.43717
0.0961161 7277.27 184.11542
0.0963946 6868.58 180.97249
0.0966732 7013.57 180.0916
0.0969518 7132.69 180.80566
0.0972303 6664.94 179.23969
0.0975089 6741.65 176.37606
0.0977875 6709.84 176.29516
0.098066 6720.12 176.49576
0.0983446 6724.8 176.58996
0.0986232 6328.9 173.56459
0.0989018 6500.8 175.98832
0.0991803 6514.74 174.68252
0.0994589 6105.71 172.60606
0.0997375 6170.53 172.68442
0.100016 6392.53 171.56629
0.100295 5917.02 170.69748
0.100573 5956.6 169.99645
0.100852 5756.26 169.15498
0.10113 5830.16 169.09279
0.101409 5815.33 168.22298
0.101687 6025.79 167.15394
0.101966 5634.8 166.48856
0.102245 5639.73 166.9137
0.102523 5569.71 165.76319
0.102802 5363.52 165.90471
0.10308 5323.2 165.92177
0.103359 5498.65 164.41884
0.103637 5430.64 164.61938
0.103916 5263.92 163.29831
0.104195 5468.05 164.92479
0.104473 5173.01 162.46661
0.104752 4988.99 162.5483
0.10503 5016.45 162.9976
0.105309 4861.03 161.33791
0.105587 5060.33 162.78687
0.105866 5131.02 160.82297
0.106145 4622.29 161.74459
0.106423 4896.98 160.32648
0.106702 4869.44 159.52575
0.10698 4860.53 161.74276
0.107259 4863.15 158.40442
0.107537 4942.72 160.31842
0.107816 4500.95 158.44969
0.108095 4478.63 158.39571
0.108373 4483.83 158.39722
0.108652 4567.57 157.51756
0.10893 4578.8 159.0604
0.109209 4303.57 157.06192
0.109487 4123.56 155.87925
0.109766 4196.21 157.15428
0.110045 3965.34 156.59864
0.110323 3731.11 154.90892
0.110602 4082 154.94422
0.11088 4005.78 155.32175
0.111159 3977.05 155.98926
0.111437 3893.12 153.58048
0.111716 3885.49 154.24417
0.111995 3796.68 153.5629
0.112273 3882.41 153.41078
0.112552 3806.15 153.78722
0.11283 3564.72 153.13502
0.113109 3823.48 153.4994
0.113387 3606.05 152.76645
0.113666 3557.72 152.33377
0.113945 3869.28 152.66411
0.114223 3208.14 151.20572
0.114502 3544.5 151.54609
0.11478 3160.79 151.4633
0.115059 3169.6 150.00579
0.115337 3380.19 150.91633
0.115616 3525.37 149.55402
0.115895 3160.8 150.62497
0.116173 2841.19 149.72219
0.116452 3197.43 148.64206
0.11673 2786.01 148.77192
0.117009 3020.1 149.42732
0.117287 2938.99 147.65882
0.117566 2912.13 148.86985
0.117845 3095.78 147.74021
0.118123 2911.82 147.8567
0.118402 2976.92 147.37835
0.11868 2557.1 145.83213
0.118959 2881.2 146.55078
0.119237 2770.88 146.57308
0.119516 2929.37 146.18219
0.119795 2643 145.52006
0.120073 2513.69 144.9211
0.120352 2419.09 145.07503
0.12063 2315.75 144.29764
0.120909 2544.97 144.02746
0.121187 2618.51 144.46509
0.121466 2244.41 143.19328
0.121745 2439.07 144.54417
0.122023 2327.34 142.72511
0.122302 2321.11 141.81358
0.12258 2290.23 142.20331
0.122859 2124.43 141.28336
0.123137 2273.99 142.26229
0.123416 2376.3 140.68435
0.123695 2167.23 140.65873
0.123973 2254.06 140.80674
0.124252 2158.95 139.55776
0.12453 2105.23 140.17116
0.124809 2014.48 139.93585
0.125087 2092.75 140.44531
0.125366 2113.73 138.80814
0.125645 2177.88 138.90975
0.125923 2190.95 139.56962
0.126202 1843.99 138.4393
0.12648 1950.01 139.87063
0.126759 1779.92 138.80771
0.127037 1982.88 138.86032
0.127316 2266.26 138.58018
0.127594 2021 138.77131
0.127873 2083.92 138.60325
0.128152 1854.68 137.76898
0.12843 1715.47 137.59204
0.128709 1831.71 138.02255
0.128987 1682.87 137.06869
0.129266 1687.52 137.00501
0.129544 1614.97 136.94291
0.129823 1659.93 137.1195
0.130102 1588.98 137.07342
0.13038 1662.66 136.62523
0.130659 1685.3 136.19872
0.130937 1680.17 135.61609
0.131216 1623.39 135.77936
0.131494 1401.38 135.21036
0.131773 1482.88 135.70347
0.132052 1435.35 134.66105
0.13233 1700.79 135.9873
0.132609 1868.76 134.8773
0.132887 1377 135.01939
0.133166 1427.27 135.54371
0.133444 1379.02 133.85424
0.133723 1261.19 134.25311
0.134002 1520.37 133.55545
0.13428 1104.16 133.85665
0.134559 1323.56 133.65265
0.134837 1365.15 133.55603
0.135116 1422.41 133.82872
0.135394 1252 132.22256
0.135673 1079.24 132.14823
0.135952 1178.21 133.60211
0.13623 1287.98 131.49996
0.136509 1019.48 132.70467
0.136787 1064.45 131.87939
0.137066 957.3 133.06645
0.137344 1163.81 135.79059
0.137623 1252.06 136.097
0.137902 1209.39 137.54897
0.13818 925.23 138.01545
0.138459 944.8 137.02582
0.138737 1135.54 139.2129
0.139016 1006.78 137.69716
0.139294 934.85 140.23682
0.139573 1141.45 140.22043
0.139852 937.2 139.64289
0.14013 1031.14 140.68342
0.140409 998.36 140.09296
0.140687 901.57 141.61949
0.140966 1020.43 141.50325
0.141244 1075.48 141.16108
0.141523 852.16 142.03165
0.141802 1052.5 141.85801
0.14208 1029.15 142.84384
0.142359 1093.13 141.81828
0.142637 779.41 142.73691
0.142916 840.87 144.30232
0.143194 1016.72 142.99532
0.143473 623.84 143.36393
0.143752 923.07 140.42261
0.14403 833.78 139.52083
0.144309 849.42 137.44084
0.144587 925.24 136.64603
0.144866 873.24 135.319
0.145144 712.03 135.60648
0.145423 888.02 134.75137
0.145702 531.94 133.98661
0.14598 790.34 133.66395
0.146259 841.22 134.00064
0.146537 679.34 133.33684
0.146816 736.05 133.05846
0.147094 679.63 132.23882
0.147373 732 131.93706
0.147652 554.97 132.23147
0.14793 704.7 131.60375
0.148209 707.1 131.18544
0.148487 629.11 130.56601
0.148766 383.72 130.35606
0.149044 749.43 130.99507
0.149323 786.19 130.43863
0.149602 549.51 130.34998
0.14988 748.89 130.23458
0.150159 584.84 129.08726
0.150437 506.13 129.4056
0.150716 565.52 129.57549
0.150994 616.27 129.46701
0.151273 651.39 128.96653
0.151552 542.4 128.8391
0.15183 691.63 127.74673
0.152109 566.14 129.02307
0.152387 588.72 127.6728
0.152666 571.55 128.97486
0.152944 555.44 128.24182
0.153223 887.06 127.69976
0.153502 624.16 128.04364
0.15378 803.65 126.9616
0.154059 517.22 127.02973
0.154337 357.99 126.64189
0.154616 528.21 126.43008
0.154894 757.29 127.10386
0.155173 213.3 126.38959
0.155452 388.71 126.68667
0.15573 599.49 125.847
0.156009 568.65 126.09535
0.156287 478.9 125.9515
0.156566 587.17 124.40688
0.156844 606.31 125.35473
0.157123 450.14 125.77843
0.157402 397.59 124.95935
0.15768 543.06 124.18578
0.157959 669.37 124.17718
0.158237 334.15 124.44828
0.158516 674.45 125.26045
0.158794 358.32 124.04932
0.159073 611.81 123.61102
0.159352 544.55 124.68016
0.15963 306.26 123.28733
0.159909 362.86 124.07906
0.160187 420.28 123.24423
0.160466 470.04 123.83482
0.160744 224.08 123.44464
0.161023 581.48 123.0207
0.161302 68.77 122.13918
0.16158 430.58 122.8973
0.161859 469.44 122.31591
0.162137 400.57 123.21331
0.162416 382.8 121.4934
0.162694 560.51 122.49208
0.162973 258.73 121.96636
0.163252 174.92 122.01593
0.16353 387.51 121.82844
0.163809 204.52 120.64449
0.164087 271.11 122.2247
0.164366 474.84 121.55409
0.164644 386.24 120.66896
0.164923 269.59 121.4304
0.165201 456.98 120.78567
0.16548 190.15 120.94835
0.165759 361.56 120.61477
0.166037 284.1 119.9338
0.166316 297.33 120.33331
0.166594 162.51 120.09657
0.166873 220.62 120.00354
0.167151 351.18 119.13881
0.16743 376.68 119.30415
0.167709 414.91 119.13012
0.167987 304.12 118.61163
0.168266 224.42 118.54018
0.168544 433.66 119.57317
0.168823 248.03 118.48621
0.169101 482.09 119.3134
0.16938 357.45 118.50332
0.169659 275.66 118.74857
0.169937 386.39 118.73049
0.170216 489.27 118.64898
0.170494 436.78 118.21448
0.170773 334.05 117.5326
0.171051 173.18 118.60094
0.17133 -28.95 118.20419
0.171609 455.49 118.47919
0.171887 171.18 118.65749
0.172166 589.96 118.31723
0.172444 324.44 118.03465
0.172723 343.42 118.45101
0.173001 412.37 118.31128
0.17328 301.34 118.01744
0.173559 404.35 118.1157
0.173837 347.57 117.84487
0.174116 202.53 118.36347
0.174394 208.06 117.47404
0.174673 396.9 118.40263
0.174951 346.6 117.34387
0.17523 312.86 117.08665
0.175509 174.94 117.79314
0.175787 256.62 116.53207
0.176066 279.88 117.1439
0.176344 440.31 117.47843
0.176623 314.97 116.56962
0.176901 250.66 116.93149
0.17718 435.88 116.62794
0.177459 290.07 116.72847
0.177737 531.99 117.60833
0.178016 297.09 115.69243
0.178294 349.61 117.05769
0.178573 265.23 115.55395
0.178851 224.57 116.99893
0.17913 453.13 115.7414
0.179409 58.67 115.74934
0.179687 330.65 116.03794
0.179966 142.86 115.55965
0.180244 297.91 115.91715
0.180523 261.71 115.37797
0.180801 548.57 115.82148
0.18108 433.73 115.56612
0.181359 392.7 115.49179
0.181637 482.2 115.43461
0.181916 377.58 114.71444
0.182194 355.02 115.36488
0.182473 381.51 116.02294
0.182751 418.61 115.27761
0.18303 311.98 116.16052
0.183309 257.97 116.07467
0.183587 279.59 116.12062
0.183866 490.49 116.36147
0.184144 337.14 116.00404
0.184423 368.53 116.95215
0.184701 342.44 116.12671
0.18498 305.72 116.53972
0.185259 398.16 116.57881
0.185537 278.17 116.37714
0.185816 320.83 116.5481
0.186094 282.74 116.2999
0.186373 427.3 115.7344
0.186651 231.46 116.3384
0.18693 207 115.58962
0.187209 224.45 114.60112
0.187487 229 115.63896
0.187766 297.05 114.84855
0.188044 366.36 115.25782
0.188323 238.46 115.45729
0.188601 179.34 114.56304
0.18888 264.46 115.30422
0.189159 185.48 114.16457
0.189437 280.7 114.57503
0.189716 359.41 114.46156
0.189994 300.83 113.60752
0.190273 171.64 114.35037
0.190551 494.51 114.4651
0.19083 -30.53 112.86094
0.191109 207.72 113.87835
0.191387 153.66 112.97073
0.191666 93.59 114.23415
0.191944 182.39 112.70993
0.192223 354.02 113.01616
0.192501 299.72 113.86008
0.19278 357.11 112.76893
0.193059 152.29 113.80323
0.193337 -23.24 112.51276
0.193616 2.93 113.2073
0.193894 19.02 112.50319
0.194173 108.58 112.04516
0.194451 351.67 112.66583
0.19473 -42.47 112.84063
0.195009 179.16 111.85639
0.195287 251.2 112.1323
0.195566 58.23 111.41719
0.195844 191.68 112.00063
0.196123 249.33 113.27841
0.196401 185.08 114.5267
0.19668 444.53 116.00735
0.196959 161.03 115.29539
0.197237 266.02 116.71904
0.197516 149.88 116.49764
0.197794 268.31 116.62732
0.198073 355.12 117.95762
0.198351 289.67 117.41882
0.19863 300.81 117.93909
0.198909 423.69 118.12488
0.199187 68.22 117.53419
0.199466 377.1 119.72202
0.199744 227.86 118.5008
0.200023 217.95 119.56693
0.200301 166.39 119.39657
0.20058 209.99 120.18513
0.200858 373.4 121.00841
0.201137 316.25 120.14652
0.201416 229.24 120.45274
0.201694 165.73 120.41709
0.201973 192.55 121.12561
0.202251 311.41 122.08297
0.20253 277.85 121.79751
0.202808 346.01 119.66665
0.203087 318.84 118.70039
0.203366 262.75 118.42427
0.203644 261.25 117.78624
0.203923 252.1 117.23347
0.204201 107.06 116.96727
0.20448 217.6 116.41443
0.204758 279.81 115.39731
0.205037 269.87 115.84722
0.205316 285.89 115.80939
0.205594 173.11 115.26006
0.205873 504.34 116.02416
0.206151 374.68 114.46844
0.20643 312.13 114.95761
0.206708 346.35 113.72147
0.206987 260.09 114.47559
0.207266 257.7 114.2783
0.207544 270.15 114.14679
0.207823 299.78 114.07951
0.208101 428.61 113.86425
0.20838 404.17 113.68208
0.208658 368.66 113.79686
0.208937 303.14 113.09327
0.209216 333.41 114.71464
0.209494 167.29 113.02775
0.209773 337.59 112.40595
0.210051 473.98 113.42404
0.21033 315.98 112.25747
0.210608 216.21 113.60215
0.210887 265.69 112.14995
0.211166 649.41 112.54791
0.211444 380.09 112.82075
0.211723 423.29 112.04695
0.212001 565.84 111.94129
0.21228 146.05 111.69387
0.212558 276.39 112.45427
0.212837 370.31 111.97685
0.213116 632.35 111.36834
0.213394 373.14 111.58626
0.213673 225.92 111.58899
0.213951 613.76 111.95238
0.21423 364.23 112.00521
0.214508 293.25 110.96535
0.214787 480.34 111.24303
0.215066 375.71 111.33421
0.215344 249.88 110.92988
0.215623 235.34 110.92055
0.215901 224.6 110.50929
0.21618 181.98 110.33314
0.216458 322.79 110.86235
0.216737 344.9 111.01873
0.217016 372.16 109.85694
0.217294 314.21 110.49638
0.217573 212.08 110.22789
0.217851 107.25 109.70662
0.21813 255.08 109.6256
0.218408 152.88 109.70219
0.218687 136.69 109.36994
0.218966 208.62 109.63969
0.219244 302.55 109.95415
0.219523 319.4 109.1997
0.219801 131.82 109.30852
0.22008 168.25 109.2617
0.220358 202.85 108.72436
0.220637 331.84 109.84778
0.220916 210.81 108.55657
0.221194 272.57 108.72228
0.221473 160.71 108.64523
0.221751 265.49 108.60506
0.22203 328.84 108.65931
0.222308 306.15 108.53505
0.222587 309.64 108.26559
0.222866 467.79 108.60889
0.223144 225.94 108.42593
0.223423 360.16 109.11504
0.223701 190.91 107.82859
0.22398 175.36 108.70628
0.224258 355.53 108.9474
0.224537 418.54 107.9853
0.224816 381.41 108.03817
0.225094 202.81 108.06764
0.225373 305.08 108.48447
0.225651 163.19 107.31843
0.22593 36.93 107.61141
0.226208 187.01 107.75008
0.226487 394.51 107.84315
0.226766 280.02 107.80395
0.227044 193.11 107.1387
0.227323 258.76 107.4689
0.227601 191.88 107.19398
0.22788 108.29 106.73256
0.228158 261.73 106.93062
0.228437 184.77 107.29124
0.228716 386.37 107.10464
0.228994 371.74 107.00447
0.229273 291.27 106.12732
0.229551 213.89 105.87729
0.22983 228.15 106.60448
0.230108 202.9 105.99214
0.230387 262.6 106.13233
0.230666 368.77 106.48091
0.230944 8.8 105.86586
0.231223 280.73 106.64002
0.231501 494.89 106.97943
0.23178 290.54 107.2253
0.232058 251.9 107.53945
0.232337 345.29 107.24225
0.232616 250.59 107.58696
0.232894 289.32 107.21087
0.233173 454.51 107.6331
0.233451 293.34 108.11524
0.23373 182.4 107.83717
0.234008 322 108.04702
0.234287 152.37 108.15318
0.234566 197.72 107.63235
0.234844 249.42 108.13583
0.235123 357.41 107.73181
0.235401 266.21 107.96218
0.23568 128.7 107.86438
0.235958 174.87 107.07806
0.236237 132.63 107.24513
0.236515 242.2 107.06557
0.236794 267.07 108.08354
0.237073 122.07 106.33065
0.237351 173.06 106.82863
0.23763 220.61 106.51831
0.237908 148 106.69718
0.238187 143.45 106.40595
0.238465 140.52 106.38628
0.238744 189.39 106.18013
0.239023 160.08 106.01105
0.239301 138.48 106.19007
0.23958 444.79 106.46962
0.239858 186.37 105.3588
0.240137 208.13 106.37167
0.240415 242.64 105.38009
0.240694 165.7 105.23079
0.240973 181.28 105.70864
0.241251 157.99 105.72282
0.24153 222.81 105.60696
0.241808 22.42 105.06083
0.242087 218.06 104.75494
0.242365 376.74 105.12786
0.242644 221.01 104.63418
0.242923 301.49 104.69891
0.243201 -43.23 104.97214
0.24348 260.91 104.60432
0.243758 244.33 104.3649
0.244037 146.5 103.94023
0.244315 274.35 104.44033
0.244594 169.04 103.93381
0.244873 227.18 104.05176
0.245151 207.58 103.4382
0.24543 210.83 103.48375
0.245708 118.38 103.1201
0.245987 177.57 102.95052
0.246265 212.31 104.04065
0.246544 76.97 103.07916
0.246823 412.99 103.9337
0.247101 283.96 103.23909
0.24738 93.07 103.53444
0.247658 198.99 103.315
0.247937 229.63 103.57671
0.248215 315.05 103.89669
0.248494 220.68 102.93806
0.248773 219.93 102.70882
0.249051 181.01 103.2628
0.24933 278.87 103.71497
0.249608 95.44 103.49541
0.249887 282.33 102.64362
0.250165 184.72 103.11456
0.250444 105.1 102.84943
0.250723 274.68 102.85539
0.251001 214.96 102.91408
0.25128 260.31 102.73184
0.251558 71.03 102.50598
0.251837 216 102.67407
0.252115 363.71 102.77362
0.252394 156.74 102.9505
0.252673 207.06 102.49629
0.252951 198.22 102.35756
0.25323 88.9 102.26379
0.253508 311.34 102.19761
0.253787 441.56 102.88797
0.254065 120.09 101.82448
0.254344 231.78 101.91819
0.254623 89.87 101.95126
0.254901 106.21 102.27291
0.25518 272.42 103.31798
0.255458 268.24 104.03521
0.255737 125.96 105.11505
0.256015 224.6 105.63929
0.256294 264.4 106.38908
0.256573 285.85 106.29143
0.256851 15.58 106.78651
0.25713 123.84 107.16225
0.257408 66.85 107.40283
0.257687 368.72 108.71775
0.257965 182.05 107.95994
0.258244 213.4 108.58572
0.258523 244.01 108.5129
0.258801 60.89 109.12184
0.25908 338.33 109.65437
0.259358 189.05 108.28696
0.259637 383.13 110.36974
0.259915 165.18 109.23818
0.260194 152.09 110.01065
0.260473 276.58 109.85656
0.260751 130.21 109.87403
0.26103 142.46 110.56634
0.261308 -33.76 110.99062
0.261587 262.59 110.98823
0.261865 291.53 109.90931
0.262144 250.25 108.1231
0.262423 284.61 107.45329
0.262701 213.88 106.85533
0.26298 234.41 107.35443
0.263258 228.82 106.309
0.263537 105.28 105.86778
0.263815 114.62 106.11366
0.264094 463.96 105.23391
0.264373 168.32 106.45677
0.264651 202.19 105.35963
0.26493 368.76 105.25022
0.265208 488.52 105.41212
0.265487 22.83 104.69177
0.265765 257.4 105.41285
0.266044 181.84 104.30624
0.266323 250.91 104.85566
0.266601 463.05 105.13705
0.26688 302.74 103.91691
0.267158 -33.44 104.44523
0.267437 129.71 103.0679
0.267715 209.74 104.55577
0.267994 191.12 104.03158
0.268273 198.66 103.11646
0.268551 358.56 103.90712
0.26883 192.79 102.15952
0.269108 -118.38 102.52496
0.269387 114.8 102.29022
0.269665 142.93 101.95921
0.269944 167 102.65788
0.270223 115.38 101.72849
0.270501 238.74 101.79616
0.27078 224.39 101.78161
0.271058 471.71 101.84347
0.271337 104.07 101.66296
0.271615 206.23 101.42958
0.271894 73.83 101.5324
0.272172 287.74 101.78103
0.272451 276.96 101.17166
0.27273 185.49 101.14373
0.273008 202.89 101.28831
0.273287 29.6 100.21925
0.273565 65.03 101.16132
0.273844 135.81 101.57782
0.274122 380.16 101.42273
0.274401 118.31 101.27861
0.27468 314.61 101.13535
0.274958 127.7 100.9368
0.275237 205.48 100.79164
0.275515 232.83 101.20251
0.275794 126.43 100.89605
0.276072 256.08 100.51704
0.276351 150.51 100.58597
0.27663 161.61 100.11872
0.276908 150.79 100.44898
0.277187 346.45 100.7937
0.277465 179.81 100.26788
0.277744 332.33 101.19544
0.278022 53.68 99.93835
0.278301 256.31 100.19749
0.27858 107.3 100.98667
0.278858 213.87 100.02803
0.279137 248.48 100.40948
0.279415 232 99.723016
0.279694 169.27 100.15231
0.279972 199.71 99.964906
0.280251 215.59 99.875002
0.28053 156.59 99.903657
0.280808 234.6 99.866106
0.281087 185.42 99.549465
0.281365 124 99.888304
0.281644 148.03 99.49181
0.281922 302.3 99.582946
0.282201 19.77 99.576899
0.28248 105.16 99.130596
0.282758 171.8 99.482913
0.283037 68.27 99.227113
0.283315 21.74 99.548033
0.283594 164.8 99.18181
0.283872 150.61 99.46513
0.284151 186.37 99.099515
0.28443 62.93 99.039635
0.284708 227.41 99.305662
0.284987 93.82 99.443337
0.285265 121.32 98.954559
0.285544 143.58 98.603092
0.285822 216.47 99.073776
0.286101 229.44 98.639205
0.28638 121.27 98.52622
0.286658 43.63 98.657669
0.286937 202.09 98.913651
0.287215 145.33 98.434005
0.287494 6.75 98.553354
0.287772 109.78 98.746509
0.288051 373.02 98.388432
0.28833 186.28 98.685247
0.288608 219.05 98.316006
0.288887 235.67 98.406143
0.289165 169.45 98.402843
0.289444 88.17 98.037124
0.289722 181.09 97.798339
0.290001 240.92 98.245004
0.29028 191.44 98.07838
0.290558 383.41 98.984151
0.290837 183.51 97.616529
0.291115 36.28 97.803496
0.291394 76.12 97.601275
0.291672 100.17 97.823232
0.291951 127.29 98.076925
0.29223 18.15 97.223999
0.292508 169.65 97.759572
0.292787 169.47 97.398477
0.293065 -110.73 97.712674
0.293344 190.87 98.112179
0.293622 44.6 96.974337
0.293901 22.97 97.537834
0.29418 340.22 97.438822
0.294458 225.23 97.585967
0.294737 155.26 97.508517
0.295015 -120.45 97.457561
0.295294 -23.36 97.24688
0.295572 135.38 97.1371
0.295851 -35.75 96.623051
0.29613 47.11 97.358119
0.296408 128.44 97.013981
0.296687 122.56 96.986688
0.296965 103.58 96.801543
0.297244 138.66 96.446625
0.297522 146.31 97.420539
0.297801 189.44 96.519178
0.29808 146.11 96.794856
0.298358 -60.53 96.018932
0.298637 141.68 97.017567
0.298915 -73.73 96.608053
0.299194 -82.36 96.047674
0.299472 73.63 96.5995
0.299751 286.71 96.795522
0.30003 45.71 96.290084
0.300308 129.58 96.392275
0.300587 165.79 96.281341
0.300865 227.77 96.278594
0.301144 174.6 96.524911
0.301422 286.63 95.882293
0.301701 103.81 96.279622
0.30198 -37.66 96.111078
0.302258 55.75 95.626658
0.302537 256.06 96.336374
0.302815 240.09 95.859862
0.303094 17.97 95.507072
0.303372 193.13 96.580309
0.303651 24.62 95.332894
0.30393 -57.95 95.628398
0.304208 123.78 95.600301
0.304487 107.34 95.311389
0.304765 82.18 95.940717
0.305044 15.2 94.857173
0.305322 6.19 95.298371
0.305601 130.74 95.250898
0.30588 147.66 94.991846
0.306158 22.8 95.187213
0.306437 59.77 94.727804
0.306715 -136.32 95.609738
0.306994 150.09 94.976388
0.307272 101.96 95.147131
0.307551 14.64 95.06565
0.30783 21.06 94.860205
0.308108 75.14 95.459476
0.308387 184.27 95.056272
0.308665 55.16 95.038054
0.308944 83.89 94.904149
0.309222 115 95.371995
0.309501 127.57 95.324506
0.309779 231.68 95.296559
0.310058 15.69 95.343237
0.310337 181.04 95.428056
0.310615 0.38 94.683978
0.310894 249.51 95.230067
0.311172 79.23 94.881404
0.311451 149.63 95.471805
0.311729 119.36 94.716813
0.312008 8.02 94.78128
0.312287 106.41 95.14061
0.312565 186.76 95.056719
0.312844 144.56 94.901614
0.313122 119.44 94.40687
0.313401 -37.48 94.686639
0.313679 53.81 94.321329
0.313958 116.34 94.41527
0.314237 104.19 95.16246
0.314515 36.77 96.659254
0.314794 -6.42 97.225117
0.315072 113.67 97.944844
0.315351 -24.39 97.975058
0.315629 105.15 98.391309
0.315908 155.04 99.028235
0.316187 -12.87 99.291231
0.316465 155.92 99.605522
0.316744 257.47 100.48734
0.317022 146.61 100.32016
0.317301 113.74 100.06187
0.317579 125.45 100.26416
0.317858 -62.79 100.40643
0.318137 -12.95 101.44733
0.318415 20.64 100.29265
0.318694 141.83 101.88829
0.318972 198.43 101.55684
0.319251 141.12 102.14433
0.319529 25.95 102.98628
0.319808 0.61 101.76169
0.320087 -68.78 103.13268
0.320365 -79.85 102.42195
0.320644 74.08 103.22867
0.320922 124.61 102.28091
0.321201 173.79 100.3618
0.321479 -18.85 100.86554
0.321758 35.76 99.736905
0.322037 -81.44 99.17495
0.322315 83.54 99.819422
0.322594 93.83 98.598113
0.322872 -139.66 98.943505
0.323151 155.61 98.41666
0.323429 164.54 97.630225
0.323708 56.12 98.259714
0.323987 -38.9 97.796862
0.324265 22.53 97.641601
0.324544 6.7 97.757558
0.324822 83.55 97.490319
0.325101 -58.83 97.427231
0.325379 40.68 96.909647
0.325658 78.44 97.143359
0.325937 192.37 97.225911
0.326215 104.06 96.525998
0.326494 127.89 96.890153
0.326772 23.88 96.749494
0.327051 12.04 96.512664
0.327329 133.39 96.716172
0.327608 70.17 96.198835
0.327887 156.21 96.503684
0.328165 45.55 96.134835
0.328444 128.56 95.893663
0.328722 166.79 96.111587
0.329001 141.89 95.598776
0.329279 -7.88 95.903362
0.329558 -40.55 95.984068
0.329837 66.22 95.090312
0.330115 35.23 95.94476
0.330394 84.06 95.092488
0.330672 169.3 95.828272
0.330951 77.44 95.521046
0.331229 177.31 94.885572
0.331508 12.34 95.255362
0.331787 140.85 94.47899
0.332065 108.13 95.130365
0.332344 -73.68 94.762377
0.332622 -88.31 94.318666
0.332901 -80.97 95.387853
0.333179 -127.52 94.155774
0.333458 -47.31 94.451305
0.333737 208.6 94.936214
0.334015 14.92 94.876597
0.334294 132.53 95.31623
0.334572 229.63 94.433263
0.334851 118.84 94.556098
0.335129 -112.45 94.789623
0.335408 293.21 94.436118
0.335687 -73.3 95.022005
0.335965 50.79 94.527595
0.336244 102.49 94.635946
0.336522 104.75 94.533387
0.336801 -177.87 93.922012
0.337079 50.2 94.277386
0.337358 -84.97 94.241348
0.337637 172.99 94.759823
0.337915 -95.02 94.582015
0.338194 253.72 93.961186
0.338472 72.7 94.264304
0.338751 -13.85 93.62454
0.339029 -76.94 93.579978
0.339308 -77.26 93.741053
0.339587 185.62 93.53931
0.339865 20.28 93.846314
0.340144 -84.03 93.580099
0.340422 -85.71 93.253597
0.340701 -64.98 93.505689
0.340979 -99.9 93.961301
0.341258 267.15 93.388884
0.341537 -94 93.314779
0.341815 128.06 93.227588
0.342094 174.24 93.157944
0.342372 -50.19 93.237718
0.342651 18.55 93.034686
0.342929 -7.64 92.403679
0.343208 -27.68 93.195709
0.343487 177.74 92.967341
0.343765 39.25 92.734374
0.344044 -40.25 92.154464
0.344322 -149.37 92.64722
0.344601 100.55 92.918442
0.344879 -100.06 92.481781
0.345158 124.3 92.251248
0.345436 63.53 92.29391
0.345715 38.56 92.612311
0.345994 111.21 91.636564
0.346272 -15.39 92.282773
0.346551 -21.08 92.434794
0.346829 -2.82 91.941484
0.347108 -138.94 92.296965
0.347386 63.08 91.98514
0.347665 38.51 92.380758
0.347944 113.05 91.821671
0.348222 -66.46 91.82893
0.348501 51.59 92.52203
0.348779 -47.8 91.617399
0.349058 -56.36 92.259001
0.349336 142.9 92.384853
0.349615 285.15 91.864916
0.349894 -16.55 92.096754
0.350172 -20.8 92.175051
0.350451 112.24 92.286737
0.350729 108.15 92.379566
0.351008 181.36 92.070129
0.351286 19.92 91.951725
0.351565 51.49 91.580886
0.351844 125.94 91.961973
0.352122 234.49 92.119833
0.352401 97.26 91.797161
0.352679 64.76 92.167641
0.352958 217.64 91.722408
0.353236 34.6 91.860865
0.353515 109.12 91.815933
0.353794 79.78 91.934561
0.354072 38.32 91.900428
0.354351 89.07 92.169407
0.354629 99.58 91.655899
0.354908 -46.15 92.169569
0.355186 69.38 91.737595
0.355465 159.74 91.920261
0.355744 204.94 91.972146
0.356022 139.2 91.410908
0.356301 152.52 92.190472
0.356579 -37.94 91.484525
0.356858 79.09 91.97129
0.357136 72.7 92.214386
0.357415 -24.32 91.342671
0.357694 6.21 92.145362
0.357972 -11.84 91.237162
0.358251 110.8 91.815395
0.358529 279.24 92.094505
0.358808 15.89 91.75388
0.359086 164.44 91.87617
0.359365 -53.58 91.172312
0.359644 130.5 91.8021
0.359922 197.83 92.262304
0.360201 172.28 91.456374
0.360479 -38.66 91.483427
0.360758 -57.35 91.756321
0.361036 203.11 91.726545
0.361315 -7.57 91.846798
0.361594 27.02 91.62042
0.361872 154.07 91.750073
0.362151 133.23 91.742386
0.362429 144.12 91.753703
0.362708 -49.7 91.391212
0.362986 -25.89 91.338995
0.363265 46.74 91.518172
0.363544 47.87 91.74232
0.363822 81.09 91.842177
0.364101 23.73 91.600922
0.364379 -101.01 91.234404
0.364658 -5.39 91.651125
0.364936 63.6 91.348514
0.365215 248.49 91.556858
0.365494 40.68 91.787185
0.365772 104.08 91.459805
0.366051 -33.85 91.326453
0.366329 68.87 90.996393
0.366608 227.19 91.341361
0.366886 255.47 91.562626
0.367165 311.12 91.493856
0.367444 103.5 91.579988
0.367722 190.49 91.089168
0.368001 169.87 91.51207
0.368279 12.2 91.367346
0.368558 101.83 91.447747
0.368836 136.3 91.901622
0.369115 170.26 91.087687
0.369394 6.9 91.408307
0.369672 203.08 91.697402
0.369951 34.11 91.182829
0.370229 89.64 91.589975
0.370508 4.36 91.242891
0.370786 -178.73 91.804398
0.371065 233.05 91.697202
0.371344 56.58 91.505681
0.371622 73.5 91.643571
0.371901 143.57 91.742327
0.372179 -7.29 91.029403
0.372458 18.05 91.54646
0.372736 122.11 91.560073
0.373015 62.01 91.301487
0.373294 275.66 92.770859
0.373572 117.48 93.993033
0.373851 159.65 94.239172
0.374129 -57.7 94.561895
0.374408 169.11 95.275398
0.374686 126.9 95.933874
0.374965 193.37 95.732256
0.375244 214.59 97.037442
0.375522 92.47 96.047358
0.375801 223.89 96.815033
0.376079 53.9 97.106418
0.376358 -21.38 97.13592
0.376636 172.09 97.979006
0.376915 219.21 97.187088
0.377194 -3.04 97.941478
0.377472 15.92 98.669641
0.377751 130.03 98.148477
0.378029 117.83 99.085902
0.378308 161.09 98.729129
0.378586 56.46 99.441
0.378865 -4.49 99.935355
0.379144 257.54 99.586803
0.379422 -0.75 100.31636
0.379701 17.84 99.684157
0.379979 35.14 98.956448
0.380258 2.02 97.881934
0.380536 -20.97 96.757345
0.380815 83.21 96.806209
0.381093 126.55 96.591382
0.381372 50.54 97.036681
0.381651 144.23 96.235538
0.381929 -87.31 95.714219
0.382208 15.13 95.697851
0.382486 140.8 95.882658
0.382765 167.79 95.859648
0.383043 77.64 95.752716
0.383322 70.85 95.554176
0.383601 -20.91 95.647608
0.383879 282.23 95.068002
0.384158 92.79 95.347716
0.384436 64.53 94.875012
0.384715 79.92 95.226356
0.384993 75.48 94.30503
0.385272 62.65 94.657865
0.385551 -65.45 94.35094
0.385829 146.93 94.339122
0.386108 267.4 95.198012
0.386386 126.99 93.916565
0.386665 87.81 94.534548
0.386943 -11.52 93.876297
0.387222 63.1 93.804869
0.387501 17.46 94.085376
0.387779 211.13 93.987314
0.388058 108.81 94.36713
0.388336 -8.09 93.96049
0.388615 139.9 94.192659
0.388893 31.66 93.92329
0.389172 101.49 93.66559
0.389451 95.21 94.068603
0.389729 86.77 93.321358
0.390008 92.15 93.797739
0.390286 155.53 93.325293
0.390565 151.06 92.856225
0.390843 99.71 93.412241
0.391122 99.98 93.045139
0.391401 -13.98 93.366119
0.391679 55.98 93.325972
0.391958 -77.78 92.539174
0.392236 165.21 93.535521
0.392515 187.4 92.94723
0.392793 3.26 93.394574
0.393072 156.57 93.283574
0.393351 277.95 92.240902
0.393629 42.25 92.877261
0.393908 9.27 92.490285
0.394186 -10.93 93.04744
0.394465 140.57 93.15126
0.394743 268 92.867275
0.395022 214.26 92.84811
0.395301 150.9 93.118514
0.395579 -92.94 93.131997
0.395858 157.04 92.761251
0.396136 103.89 93.617732
0.396415 123.3 93.502588
0.396693 182.73 93.022266
0.396972 249.74 93.764574
0.397251 52.01 93.096584
0.397529 0.94 93.374091
0.397808 74.54 93.715794
0.398086 110.51 92.983103
0.398365 145.55 93.536992
0.398643 62.59 93.315716
0.398922 244.8 93.588079
0.399201 35.8 93.578655
0.399479 135.37 92.689106
0.399758 87.79 93.485322
0.400036 108.04 93.408413
0.400315 37.12 93.283282
0.400593 235.46 93.229832
0.400872 160.26 93.689804
0.401151 -0.67 93.480139
0.401429 82.8 93.229673
0.401708 82.85 93.314002
0.401986 180.16 93.58928
0.402265 -30.32 93.435493
0.402543 -96.78 93.385253
0.402822 152.43 93.488168
0.403101 290.7 93.516155
0.403379 66.83 93.500893
0.403658 211.8 94.081512
0.403936 40.25 92.841312
0.404215 73.47 93.818962
0.404493 82.19 93.468006
0.404772 53.24 93.454045
0.405051 80.36 93.820011
0.405329 193.2 93.404679
0.405608 176.63 94.09856
0.405886 5.29 93.369708
0.406165 180.75 93.63506
0.406443 134.67 93.208508
0.406722 -105.69 93.646676
0.407001 59.7 93.661857
0.407279 26.75 93.497484
0.407558 105.12 93.80052
0.407836 106.97 93.872118
0.408115 -4.69 93.524893
0.408393 11.33 93.80767
0.408672 -94.51 93.084499
0.408951 128.56 93.817232
0.409229 38.64 93.618861
0.409508 80.04 93.683435
0.409786 -5.72 93.304583
0.410065 119.56 93.147957
0.410343 -1.81 93.93508
0.410622 -191.72 93.559433
0.410901 141.54 93.419727
0.411179 93.53 93.575189
0.411458 50.81 93.10661
0.411736 118.59 93.061304
0.412015 65.65 93.387265
0.412293 70.75 93.769317
0.412572 261.33 93.560676
0.412851 158.93 93.475911
0.413129 131.01 93.121827
0.413408 321.27 93.308
0.413686 75.73 93.502959
0.413965 109.61 92.932926
0.414243 103.96 93.3369
0.414522 99.72 92.899568
0.414801 101.25 93.466096
0.415079 98.72 93.348044
0.415358 51.95 92.994312
0.415636 70.37 93.650137
0.415915 -61.16 93.188876
0.416193 45.3 93.567129
0.416472 249.09 93.209985
0.416751 197.19 92.797141
0.417029 164.33 93.989664
0.417308 -73.65 92.714929
0.417586 100.67 92.725154
0.417865 130.38 92.983688
0.418143 -0.44 92.69408
0.418422 133.66 93.390717
0.4187 29.57 92.577304
0.418979 189.19 93.195294
0.419258 127.85 92.973139
0.419536 90.91 92.567307
0.419815 113.64 92.919913
0.420093 17.72 92.78833
0.420372 68.92 93.077046
0.42065 66.92 93.335249
0.420929 178.58 93.162068
0.421208 -0.12 93.108733
0.421486 162.44 93.270595
0.421765 166.37 93.421509
0.422043 183.27 93.16657
0.422322 163.05 93.683531
0.4226 -38.64 93.42186
0.422879 110.03 93.161139
0.423158 269.65 93.415468
0.423436 12.38 93.414237
0.423715 349.35 93.509606
0.423993 28.18 93.416219
0.424272 53.44 93.341913
0.42455 137.76 93.334566
0.424829 262.63 93.404593
0.425108 195.97 93.449377
0.425386 70.26 93.449912
0.425665 49.18 93.544167
0.425943 41.75 93.177508
0.426222 4.53 93.439562
0.4265 73.37 93.102158
0.426779 195.49 94.041126
0.427058 56.88 93.258932
0.427336 111.06 93.321793
0.427615 -50.54 93.885204
0.427893 89.08 93.436477
0.428172 303.74 93.680486
0.42845 -50.82 93.772027
0.428729 208.95 93.313807
0.429008 120.76 93.861518
0.429286 -26.15 93.098338
0.429565 191.16 93.903293
0.429843 128.68 93.741106
0.430122 54.8 93.572883
0.4304 109 93.660953
0.430679 -35.66 93.229396
0.430958 201.55 94.130477
0.431236 87.98 93.879674
0.431515 287.23 94.186426
0.431793 82.45 94.036931
0.432072 88.52 93.64524
0.43235 129.47 95.375833
0.432629 -11.72 95.884519
0.432908 134.89 96.832987
0.433186 225.89 98.352389
0.433465 219.81 98.048806
0.433743 122.25 99.201265
0.434022 181.91 98.87868
0.4343 84.48 99.670505
0.434579 260.35 100.76399
0.434858 29.13 99.836635
0.435136 97.88 101.14084
0.435415 -6.97 101.28186
0.435693 102.13 101.21109
0.435972 270.55 102.95945
0.43625 148.46 101.66202
0.436529 153.88 103.07637
0.436808 -44.91 103.32381
0.437086 27.5 103.71287
0.437365 203.06 104.56039
0.437643 246.76 103.32641
0.437922 219.24 104.84394
0.4382 334.13 104.70701
0.438479 113.06 104.99774
0.438758 231.15 105.78298
0.439036 114.96 102.91547
0.439315 167.38 102.31296
0.439593 232.3 101.40384
0.439872 277.83 101.06733
0.44015 115.34 100.9056
0.440429 135.5 100.26741
0.440708 72.98 100.04835
0.440986 165.25 99.790615
0.441265 59.49 100.0516
0.441543 63.06 100.01414
0.441822 -29.33 99.466434
0.4421 104.36 99.449268
0.442379 -11.91 99.434222
0.442658 197.38 98.86976
0.442936 101.34 99.167576
0.443215 225.67 99.367004
0.443493 131.37 98.239849
0.443772 493.9 98.474724
0.44405 131.02 97.843872
0.444329 12.7 99.149493
0.444608 154.88 98.424156
0.444886 156.16 98.287552
0.445165 76.42 98.175992
0.445443 150.42 98.408064
0.445722 96.22 98.215827
0.446 198.73 98.603857
0.446279 184.75 98.185485
0.446558 77.43 98.205902
0.446836 71.78 97.939352
0.447115 144.68 97.370392
0.447393 2.21 98.542436
0.447672 58.31 97.965984
0.44795 71.07 97.627153
0.448229 78.84 97.25611
0.448508 117.31 97.250766
0.448786 236.23 97.707846
0.449065 192.28 97.577633
0.449343 265.26 97.101985
0.449622 31.12 97.213124
0.4499 54.26 96.772764
0.450179 49.65 97.651383
0.450458 107.27 97.24297
0.450736 100.13 96.962636
0.451015 -11.54 96.386864
0.451293 253.83 97.382589
0.451572 125.99 97.181059
0.45185 107.62 96.766348
0.452129 130.8 96.748074
0.452408 162.64 96.90563
0.452686 228.87 96.789532
0.452965 36.22 95.837865
0.453243 -19.34 96.941654
0.453522 175.4 96.253622
0.4538 49.16 96.272664
0.454079 126.11 96.80216
0.454357 122.45 96.44206
0.454636 212.04 96.801667
0.454915 182.99 97.00701
0.455193 229.91 96.296406
0.455472 -40.2 96.650757
0.45575 -41.44 96.284769
0.456029 69.84 96.730066
0.456307 208.92 96.770639
0.456586 34.28 96.304921
0.456865 32.59 96.290118
0.457143 45.04 95.833342
0.457422 44 96.605254
0.4577 151.44 96.003426
0.457979 144.66 96.628206
0.458257 137.08 96.651421
0.458536 348.57 96.444482
0.458815 20.55 96.400696
0.459093 86.04 96.790388
0.459372 58.98 96.311017
0.45965 -38.36 96.305322
0.459929 193.49 96.140067
0.460207 150.95 96.972112
0.460486 328.93 96.087408
0.460765 -85.43 96.575963
0.461043 272.24 96.563341
0.461322 138 96.527835
0.4616 -5.49 96.343132
0.461879 127.67 95.746888
0.462157 94.65 96.752912
0.462436 42.29 96.318988
0.462715 75.37 95.984156
0.462993 12.61 96.487074
0.463272 140.77 95.802875
0.46355 157.36 96.493353
0.463829 196.19 96.524928
0.464107 181.29 96.218496
0.464386 -2.32 97.046858
0.464665 229.9 95.925531
0.464943 327.41 97.004599
0.465222 216.36 95.845943
0.4655 167.27 96.719856
0.465779 303.14 96.321099
0.466057 219.41 96.214485
0.466336 186.15 96.828695
0.466615 40.41 95.862684
0.466893 89.91 96.894765
0.467172 99.19 96.020159
0.46745 25.02 96.256585
0.467729 195.04 96.437869
0.468007 69.62 96.04384
0.468286 108.92 96.254188
0.468565 122.15 96.584234
0.468843 108.2 96.186697
0.469122 -85.74 96.317483
0.4694 66.01 95.694404
0.469679 107.18 96.58866
0.469957 272.56 95.554075
0.470236 52.1 96.419888
0.470515 -135.27 95.86827
0.470793 100.63 95.851194
0.471072 140.29 96.393548
0.47135 307.36 96.418732
0.471629 162.98 96.191013
0.471907 11.13 95.802229
0.472186 -20.59 96.058171
0.472465 110.99 96.307848
0.472743 97.09 96.28752
0.473022 84.11 95.925208
0.4733 107.37 96.229444
0.473579 86.2 95.815637
0.473857 133.16 96.187837
0.474136 106.27 96.068468
0.474415 75.89 96.5004
0.474693 341.39 95.632591
0.474972 249.98 96.548729
0.47525 186.68 96.119625
0.475529 32.34 96.222787
0.475807 78.83 96.86217
0.476086 124.25 96.031619
0.476365 81.38 97.20859
0.476643 118.2 95.974701
0.476922 68.46 96.364892
0.4772 201.81 96.651094
0.477479 156.93 96.308177
0.477757 30.18 96.830233
0.478036 46.85 96.138345
0.478315 286.54 96.960319
0.478593 63.72 96.122046
0.478872 72.69 96.454102
0.47915 175.25 97.043466
0.479429 84.28 95.762977
0.479707 137.34 97.041402
0.479986 236.35 96.304347
0.480265 150.11 96.720827
0.480543 81.59 96.822222
0.480822 36.91 96.200077
0.4811 92.43 96.780754
0.481379 185.2 96.615825
0.481657 151.49 96.67877
0.481936 174.48 96.341214
0.482215 124.82 96.803923
0.482493 118.31 96.573948
0.482772 158.02 96.569402
0.48305 84.07 96.769311
0.483329 26.13 96.599614
0.483607 -21.62 96.073892
0.483886 163.99 96.902489
0.484165 226.47 95.463837
0.484443 123.56 96.382122
0.484722 -78 96.051819
0.485 228.38 96.706402
0.485279 107.59 96.200702
0.485557 108.82 96.161063
0.485836 145.88 96.080186
0.486115 135.3 95.673846
0.486393 6.67 95.913621
0.486672 175.02 95.943689
0.48695 167.13 95.578421
0.487229 161.06 96.375475
0.487507 86.3 95.729117
0.487786 107.51 96.176389
0.488065 39.79 95.531981
0.488343 -125.29 96.17232
0.488622 49.23 95.887237
0.4889 217.75 95.980655
0.489179 264.56 96.262749
0.489457 312.76 96.039778
0.489736 99.73 96.519354
0.490014 48.97 95.467348
0.490293 37.2 95.826782
0.490572 21.38 96.244735
0.49085 -22.44 94.804351
0.491129 40.96 95.734275
0.491407 257.32 96.847441
0.491686 -5.71 98.692154
0.491964 119.3 99.500332
0.492243 24.71 99.197525
0.492522 77.71 101.16078
0.4928 89.33 100.85251
0.493079 231.3 101.87914
0.493357 171.18 102.22481
0.493636 147.21 101.79516
0.493914 179.73 103.16942
0.494193 173.03 102.42041
0.494472 169.52 103.85263
0.49475 67.01 103.66925
0.495029 -52.01 103.95102
0.495307 121.68 105.10197
0.495586 166.31 104.41013
0.495864 -45.08 105.63272
0.496143 76.99 106.01164
0.496422 224.42 106.42504
0.4967 161.07 106.85193
0.496979 255.24 107.09193
0.497257 336.01 107.79308
0.497536 134.93 107.37012
0.497814 -10.53 108.23905
0.498093 72.36 106.88241
0.498372 70.88 104.69506
0.49865 316.91 105.49088
0.498929 185.95 103.90217
0.499207 185.11 103.56532
0.499486 200.72 103.0742
0.499764 89.64 102.67763
0.500043 305.69 102.68664
0.500322 334.48 102.81351
0.5006 118.89 101.89503
0.500879 237.3 101.96673
0.501157 252.5 101.95297
0.501436 179.18 101.05231
0.501714 116.1 101.33108
0.501993 35.5 101.35703
0.502272 303.8 100.98775
0.50255 236.92 101.35164
0.502829 235.1 100.9624
0.503107 37.03 100.68076
0.503386 85.17 101.5713
0.503664 125.52 99.999914
0.503943 273.28 101.24439
0.504222 237.94 99.542624
0.5045 4.42 100.96297
0.504779 26.3 100.07706
0.505057 -18 100.43237
0.505336 136.15 100.508
0.505614 187.37 99.790126
0.505893 150.11 100.73979
0.506172 152.27 100.13422
0.50645 102.87 99.654962
0.506729 -113.02 100.32858
0.507007 105.96 99.656219
0.507286 309.37 100.6225
0.507564 129.69 99.72249
0.507843 147.72 100.17437
0.508122 65.7 100.71668
0.5084 231.45 99.339598
0.508679 134.42 100.53916
0.508957 258.19 99.558915
0.509236 6.55 99.946175
0.509514 164.38 99.57698
0.509793 51.64 99.660977
0.510072 -71.93 99.820706
0.51035 95.49 99.722698
0.510629 137.95 99.983717
0.510907 41.98 99.673796
0.511186 233.64 99.666198
0.511464 -30.5 99.965758
0.511743 183.99 99.72362
0.512022 179.38 99.431187
0.5123 191.07 99.552416
0.512579 182.4 99.742053
0.512857 158.3 99.762774
0.513136 -2.41 99.364551
0.513414 96.85 99.929886
0.513693 137.22 99.546746
0.513972 51.92 99.536977
0.51425 75.78 99.184043
0.514529 214.47 99.767955
0.514807 333.06 99.969632
0.515086 216.25 99.850613
0.515364 32.4 99.739512
0.515643 138.18 99.077539
0.515922 127.02 99.444614
0.5162 16.3 99.66009
0.516479 2.2 99.402866
0.516757 171.75 99.526377
0.517036 201.81 99.300267
0.517314 238.02 99.250703
0.517593 82.43 99.739331
0.517872 47.81 98.837161
0.51815 191.63 100.11745
0.518429 173.59 99.338384
0.518707 103.5 99.906628
0.518986 86.13 99.248267
0.519264 141.34 99.483023
0.519543 170.47 99.386613
0.519822 199.55 99.52958
0.5201 252.56 99.317634
0.520379 221.56 98.875983
0.520657 240.74 99.716515
0.520936 -59.16 99.260144
0.521214 94.82 99.200711
0.521493 252.61 98.846643
0.521772 111.55 99.204636
0.52205 294.57 99.430903
0.522329 156.06 99.309845
0.522607 159.61 99.073494
0.522886 -4.2 99.103277
0.523164 159.33 99.306976
0.523443 163.28 99.49661
0.523722 198.29 98.80076
0.524 157.6 98.643114
0.524279 45.01 98.382835
0.524557 156.82 98.384509
0.524836 117.91 98.681449
0.525114 149.46 98.402146
0.525393 66.14 98.850781
0.525671 215.59 98.550637
0.52595 148.83 98.260868
0.526229 176.45 98.222246
0.526507 230.38 98.553933
0.526786 -79.79 98.099696
0.527064 176.31 98.761301
0.527343 132.18 98.012832
0.527621 245.27 97.976135
0.5279 -111.09 98.005698
0.528179 96.33 98.124516
0.528457 112.35 98.07125
0.528736 147.31 98.272717
0.529014 12.02 97.545428
0.529293 45.26 98.324996
0.529571 7.21 98.286957
0.52985 148.79 98.043748
0.530129 329.73 97.775544
0.530407 -57.39 98.269712
0.530686 6.96 98.456512
0.530964 29.14 98.106075
0.531243 -111.89 98.126185
0.531521 174.6 98.36419
0.5318 134.84 98.288009
0.532079 61.85 98.649693
0.532357 172.97 98.436049
0.532636 242.29 98.78526
0.532914 5.4 98.862192
0.533193 64.06 98.305178
0.533471 242.17 98.514013
0.53375 39.85 98.313202
0.534029 300.43 98.777585
0.534307 174.5 98.503824
0.534586 56.6 97.942246
0.534864 77.59 98.222298
0.535143 120.4 98.531403
0.535421 196.18 98.614801
0.5357 -88.78 98.688904
0.535979 36.75 98.026262
0.536257 28.37 98.486143
0.536536 145.23 99.10604
0.536814 54.44 98.006691
0.537093 212.23 98.513798
0.537371 92.53 98.429883
0.53765 206.13 98.778146
0.537929 13.32 98.18437
0.538207 244.09 97.853954
0.538486 235.81 98.259868
0.538764 253.69 98.453056
0.539043 78.8 97.742307
0.539321 262.69 98.090152
0.5396 -25.41 97.605439
0.539879 182.36 98.713989
0.540157 45.27 97.695459
0.540436 14.42 97.954276
0.540714 90.51 97.632422
0.540993 20.12 97.743728
0.541271 205.69 98.23706
0.54155 220.18 97.887983
0.541829 55.15 97.869027
0.542107 222.52 97.181315
0.542386 105.38 97.777602
0.542664 146.98 97.581625
0.542943 37.56 97.29673
0.543221 101.7 97.646779
0.5435 141.4 97.270448
0.543779 -28.22 96.987868
0.544057 93.2 97.462465
0.544336 51.77 97.838392
0.544614 39.84 97.543205
0.544893 63.05 97.396131
0.545171 296.03 97.404301
0.54545 185.78 97.445791
0.545729 154.75 97.644373
0.546007 164.97 97.813104
0.546286 10.73 97.770605
0.546564 13.67 97.318888
0.546843 139.6 97.420393
0.547121 107.01 97.54572
0.5474 217.48 97.710928
0.547679 183.66 97.935396
0.547957 283.72 97.805439
0.548236 11.9 97.418787
0.548514 80.55 97.178737
0.548793 148.1 97.5031
0.549071 205.55 98.084686
0.54935 130.96 97.634333
0.549629 303.01 97.978096
0.549907 61.9 97.437827
0.550186 84.07 97.591579
0.550464 45.12 99.597348
0.550743 85.81 101.15378
0.551021 81.14 102.43812
0.5513 -95.7 103.19515
0.551579 195.17 103.59858
0.551857 72.88 103.99092
0.552136 -40.23 104.60321
0.552414 40.31 105.135
0.552693 69.88 105.92192
0.552971 89.16 106.01593
0.55325 226.29 106.62903
0.553529 20.94 107.11637
0.553807 -39.05 107.89825
0.554086 134.97 107.79902
0.554364 415.41 109.0219
0.554643 169.3 109.44416
0.554921 6.11 109.16398
0.5552 73.93 110.08636
0.555479 80.64 110.49185
0.555757 61.33 111.13046
0.556036 -62.96 111.19182
0.556314 338.29 112.49694
0.556593 -7.9 112.84546
0.556871 172.92 112.04265
0.55715 130.36 110.13775
0.557429 108.36 109.08737
0.557707 30.79 108.78384
0.557986 334.44 107.18609
0.558264 145.76 106.98873
0.558543 150.69 105.7658
0.558821 39.09 106.45881
0.5591 213.16 106.0321
0.559379 146.96 105.3653
0.559657 133.65 105.12965
0.559936 189.16 105.23293
0.560214 184.01 105.28049
0.560493 263.98 104.33688
0.560771 223.06 104.38088
0.56105 97.55 104.69019
0.561329 207.72 104.64131
0.561607 88.07 103.94623
0.561886 127.01 104.05026
0.562164 221.77 104.2356
0.562443 -38.37 103.99703
0.562721 214.64 103.34765
0.563 126.26 103.31101
0.563278 96.6 103.66374
0.563557 155.45 103.38684
0.563836 126.1 103.4627
0.564114 -96.99 102.9207
0.564393 55.08 102.65456
0.564671 176.62 103.31025
0.56495 134.39 103.28413
0.565228 20.05 104.03149
0.565507 -34.83 103.37987
0.565786 465.16 102.98785
0.566064 283.97 103.52794
0.566343 54 102.96049
0.566621 -26.83 102.87714
0.5669 125.7 103.02907
0.567178 289.76 102.90059
0.567457 127.49 103.15213
0.567736 167.23 102.29224
0.568014 109.04 102.22297
0.568293 31.56 102.8425
0.568571 271.02 102.2282
0.56885 162.33 103.11092
0.569128 -68.66 102.24104
0.569407 131.92 102.112
0.569686 150.28 102.28529
0.569964 54.9 101.87869
0.570243 357.24 102.37293
0.570521 304.26 102.22517
0.5708 57.92 101.68499
0.571078 75.79 101.39667
0.571357 218.61 101.42191
0.571636 56.7 101.75417
0.571914 159.87 101.9868
0.572193 172.43 101.15685
0.572471 252.51 101.74812
0.57275 117.79 101.68029
0.573028 137.11 101.35126
0.573307 247.48 101.4206
0.573586 79.12 101.25036
0.573864 10.18 101.32526
0.574143 77.08 101.65693
0.574421 -111.32 101.13789
0.5747 124.55 101.27469
0.574978 99.33 100.63759
0.575257 213.03 102.17757
0.575536 271 101.35409
0.575814 281.8 101.44536
0.576093 101.46 101.54677
0.576371 198.61 101.14397
0.57665 388.72 101.94119
0.576928 69.19 101.09036
0.577207 261.95 101.17192
0.577486 298.61 101.16161
0.577764 39.93 101.27462
0.578043 -46.17 100.63251
0.578321 102.62 100.98519
0.5786 10.4 101.01672
0.578878 128.58 101.58104
0.579157 110.55 101.13723
0.579436 57.9 100.58103
0.579714 212.83 100.40877
0.579993 10.44 100.74066
0.580271 91.71 101.15717
0.58055 200.46 100.35887
0.580828 11.35 100.63926
0.581107 38.68 100.28265
0.581386 128.54 101.34487
0.581664 24.58 100.15948
0.581943 187.48 100.45982
0.582221 -5.28 100.78911
0.5825 241.87 100.73385
0.582778 138.91 100.80522
0.583057 170.07 100.44646
0.583336 155.14 100.4517
0.583614 134.08 100.71853
0.583893 201.97 100.44363
0.584171 147.68 100.95275
0.58445 161.09 100.26423
0.584728 75.54 100.88886
0.585007 -16.08 100.78939
0.585286 363.92 100.56344
0.585564 384.93 100.67578
0.585843 -15.93 100.43791
0.586121 156.95 100.42803
0.5864 19.62 100.8095
0.586678 80.09 100.20094
0.586957 -110.02 100.28657
0.587236 113.39 100.73106
0.587514 86.08 100.88922
0.587793 243.07 100.63991
0.588071 117.52 100.07276
0.58835 110.65 100.92793
0.588628 150.5 100.06376
0.588907 115.52 99.889298
0.589186 77.13 100.37671
0.589464 -16.69 100.27373
0.589743 131.15 100.05034
0.590021 251.6 100.20278
0.5903 259.95 99.59569
0.590578 58.86 100.48935
0.590857 36.18 100.23848
0.591136 -11.83 99.505637
0.591414 178.23 99.593995
0.591693 -20.49 99.36847
0.591971 45.83 99.891387
0.59225 143.17 99.74842
0.592528 243.08 100.05943
0.592807 320.1 99.966286
0.593086 263.8 100.29239
0.593364 28.7 100.1241
0.593643 -103.04 99.461845
0.593921 246.42 99.996569
0.5942 97.69 100.12755
0.594478 -21.29 99.669537
0.594757 183.14 99.68318
0.595036 61.54 99.754718
0.595314 263.02 99.874302
0.595593 50.63 100.05856
0.595871 199.95 100.23257
0.59615 148.22 99.840663
0.596428 97.36 99.747327
0.596707 145.09 100.27044
0.596986 93.86 99.683674
0.597264 199.87 99.704837
0.597543 -13.76 99.598888
0.597821 37.74 99.731553
0.5981 30.22 99.369422
0.598378 146.82 99.544219
0.598657 176.58 99.430462
0.598935 72.36 99.389032
0.599214 24.35 100.10496
0.599493 294.42 99.78863
0.599771 218.56 99.6966
0.60005 297.61 100.16156
0.600328 2.9 99.527341
0.600607 34.23 99.856954
0.600885 172 99.157542
0.601164 110.97 99.541546
0.601443 30.06 99.762651
0.601721 36.16 99.62756
0.602 315.34 99.678793
0.602278 5.44 99.542851
0.602557 283.01 99.952129
0.602835 113.96 99.91264
0.603114 95.64 99.757446
0.603393 12.14 99.85069
0.603671 -68.05 100.40463
0.60395 141.63 99.720856
0.604228 161.03 100.36868
0.604507 213.11 99.693004
0.604785 196.21 100.16787
0.605064 145.7 100.0453
0.605343 140.94 99.98009
0.605621 149.55 100.04367
0.6059 291.04 99.943834
0.606178 121.54 100.29266
0.606457 43.98 100.0062
0.606735 243.43 99.730016
0.607014 -136.45 99.702947
0.607293 111.5 100.36972
0.607571 48.79 99.811217
0.60785 172.29 100.25862
0.608128 73.81 99.930389
0.608407 129.87 100.427
0.608685 53.4 100.0044
0.608964 128.62 99.947286
0.609243 22.87 99.930558
0.609521 48.24 102.21718
0.6098 21.36 103.63698
0.610078 258.25 105.26551
0.610357 95.3 105.37382
0.610635 -14.94 106.37457
0.610914 -42.64 107.02264
0.611193 178.2 107.69194
0.611471 159.17 108.12859
0.61175 -118.66 108.54392
0.612028 161.63 110.55577
0.612307 280.92 109.98244
0.612585 -17.04 110.54176
0.612864 439.08 111.47316
0.613143 224.39 111.5193
0.613421 74.88 112.21019
0.6137 94.13 112.96719
0.613978 193.79 112.85441
0.614257 258.73 113.83319
0.614535 -40.96 113.94694
0.614814 65.13 114.01246
0.615093 253.6 114.37474
0.615371 121.21 115.1355
0.61565 59.64 115.2792
0.615928 129.39 115.38847
0.616207 12.37 113.76568
0.616485 114.26 111.58789
0.616764 172.12 110.2873
0.617043 129.1 109.50569
0.617321 119.62 108.65502
0.6176 25.65 108.60091
0.617878 110.98 108.30807
0.618157 -35.26 107.63457
0.618435 79.55 107.60465
0.618714 41.55 107.21281
0.618993 153.04 107.74779
0.619271 215.57 106.31024
0.61955 292.99 107.16288
0.619828 13.68 106.38537
0.620107 246.19 106.61192
0.620385 98.61 106.35588
0.620664 57.25 105.78614
0.620943 -198.41 105.05149
0.621221 56.03 104.96199
0.6215 10.57 105.5055
0.621778 101.13 105.78392
0.622057 118.4 105.15415
0.622335 150.24 105.77525
0.622614 35.73 105.37831
0.622893 268.96 104.69677
0.623171 72.18 105.71962
0.62345 172.19 105.6325
0.623728 -47.92 104.8025
0.624007 160.87 105.09259
0.624285 301.49 104.83016
0.624564 87.75 105.10824
0.624843 322.99 104.90956
0.625121 47.89 104.87881
0.6254 43.24 104.8236
0.625678 50.45 104.47245
0.625957 13.23 104.94627
0.626235 -221.85 104.65016
0.626514 -10.73 104.64661
0.626793 0.62 104.76173
0.627071 195.36 104.63864
0.62735 242.46 104.74265
0.627628 -20.83 104.09667
0.627907 261.09 104.43309
0.628185 174.38 104.75247
0.628464 244.24 104.94046
0.628743 160.48 104.58872
0.629021 120.84 104.60781
0.6293 157.15 103.60656
0.629578 148.33 104.57707
0.629857 218.93 104.5014
0.630135 72.08 104.37148
0.630414 186.36 104.36467
0.630693 63.45 104.15534
0.630971 176.27 104.24207
0.63125 437.21 104.30413
0.631528 86.81 104.12832
0.631807 173.9 104.76055
0.632085 260.69 104.04404
0.632364 24.81 104.2827
0.632643 251.67 103.99211
0.632921 190.82 103.86994
0.6332 16.09 104.31658
0.633478 27.95 103.99313
0.633757 50.22 104.1601
0.634035 178.86 103.79196
0.634314 65 104.29289
0.634592 51.43 104.11419
0.634871 36.97 103.89779
0.63515 192.59 103.99234
0.635428 149.99 104.43547
0.635707 156.42 103.31187
0.635985 152.88 104.24173
0.636264 96.48 103.38198
0.636542 119.84 103.46351
0.636821 259.19 103.71182
0.6371 -138.55 102.57931
0.637378 162.55 102.86237
0.637657 -0.75 102.97251
0.637935 -125.42 102.74227
0.638214 108.16 103.03725
0.638492 370.48 103.14672
0.638771 178.14 102.26385
0.63905 226.52 102.75324
0.639328 248.58 102.52555
0.639607 6.7 102.97701
0.639885 186.44 102.12636
0.640164 82.89 102.7908
0.640442 113.92 102.83299
0.640721 206.48 102.07103
0.641 190.18 101.8101
0.641278 -43.94 102.64518
0.641557 185.34 102.61776
0.641835 268.59 102.36506
0.642114 190.31 102.26734
0.642392 223.48 101.99821
0.642671 153.98 102.39287
0.64295 104.5 102.42736
0.643228 231.5 102.91587
0.643507 161.72 102.22045
0.643785 264.22 102.71183
0.644064 95.35 102.49818
0.644342 80.83 102.72029
0.644621 -11.27 101.95397
0.6449 205.01 102.56925
0.645178 -74.33 102.61173
0.645457 195.18 102.65551
0.645735 -8.51 102.13243
0.646014 118.23 102.75869
0.646292 -7.68 102.55611
0.646571 38.83 102.22836
0.64685 95 102.83077
0.647128 163.2 102.66166
0.647407 301.78 102.37242
0.647685 172.86 102.25989
0.647964 84.79 102.48364
0.648242 170.56 102.20778
0.648521 350.78 102.71178
0.6488 204.25 102.40834
0.649078 28.1 102.33315
0.649357 74.37 102.1706
0.649635 78.75 102.42405
0.649914 391.32 102.55722
0.650192 31.1 102.24177
0.650471 201.27 102.11681
0.65075 45.66 102.67995
0.651028 76.93 102.03766
0.651307 201.04 102.41297
0.651585 36.07 102.35636
0.651864 87.61 101.9547
0.652142 127.99 102.65567
0.652421 193.89 101.61231
0.6527 185.11 102.26999
0.652978 76.08 102.34923
0.653257 118.25 102.26523
0.653535 17.36 101.85122
0.653814 -29.88 102.15847
0.654092 188.31 102.30523
0.654371 -27.44 102.19207
0.65465 175.56 101.87254
0.654928 75.75 102.44316
0.655207 57.53 101.91212
0.655485 166.56 102.41889
0.655764 94.54 102.48678
0.656042 177.82 102.20156
0.656321 192.38 102.28863
0.6566 158.61 102.24208
0.656878 196.07 102.79095
0.657157 209.55 102.17232
0.657435 154.12 101.97752
0.657714 78.53 102.41
0.657992 91.61 102.29106
0.658271 239.35 101.9134
0.65855 96.33 102.13665
0.658828 -15.16 102.10313
0.659107 99.17 102.72981
0.659385 86.54 102.64908
0.659664 156.62 102.42497
0.659942 33.38 102.02047
0.660221 245.81 102.38468
0.6605 -39.02 102.61786
0.660778 -103.03 102.74245
0.661057 101.56 102.69906
0.661335 224.16 102.17052
0.661614 112.54 102.51072
0.661892 -98.52 102.28788
0.662171 120.62 102.12727
0.66245 198.87 102.51939
0.662728 261.51 102.60894
0.663007 190.85 102.39324
0.663285 297.48 102.34511
0.663564 87.41 101.78571
0.663842 14.74 102.63201
0.664121 200.37 102.05826
0.6644 97.24 102.43184
0.664678 261.26 101.79918
0.664957 79.42 102.15707
0.665235 24.26 101.62893
0.665514 414.95 101.84799
0.665792 92.84 101.70083
0.666071 -10.45 101.77366
0.66635 205.65 102.01646
0.666628 173.16 101.91594
0.666907 47.52 101.87706
0.667185 189.3 101.4788
0.667464 143.9 101.9546
0.667742 99.49 101.24508
0.668021 314.04 102.12614
0.6683 221.6 101.54877
0.668578 -85.35 103.89429
0.668857 195.82 105.27925
0.669135 132.46 106.65806
0.669414 83.95 107.36652
0.669692 52.11 108.78066
0.669971 -119.63 108.98538
0.67025 -21.01 109.90949
0.670528 98.57 109.73784
0.670807 -7.82 111.00333
0.671085 17.84 112.04421
0.671364 342.07 112.71217
0.671642 205.64 112.97171
0.671921 150.17 113.4084
0.672199 169.69 115.08562
0.672478 156.23 114.63817
0.672757 68.86 115.29694
0.673035 -34.27 116.6577
0.673314 94.68 117.40414
0.673592 235.21 117.24464
0.673871 64.75 117.8152
0.674149 154.17 117.79558
0.674428 347.64 119.18173
0.674707 282.16 119.71938
0.674985 129.26 120.45984
0.675264 5.86 120.09257
0.675542 9.52 121.08677
0.675821 46.31 121.61971
0.676099 -161.63 122.27576
0.676378 27.72 121.97144
0.676657 39.69 123.83386
0.676935 -0.26 123.77114
0.677214 -23.82 123.34703
0.677492 -22.28 125.00297
0.677771 144.14 125.17348
0.678049 245.36 126.65741
0.678328 39.67 126.44229
0.678607 -4.68 126.46959
0.678885 43.12 127.60994
0.679164 39.26 127.05888
0.679442 249.76 128.71454
0.679721 278.82 129.46488
0.679999 170.57 129.26379
0.680278 46.97 130.1807
0.680557 76.77 130.76052
0.680835 42.12 131.484
0.681114 363.61 132.40451
0.681392 214.64 132.45107
0.681671 130.61 132.98722
0.681949 94.12 133.53016
0.682228 39.81 132.82984
0.682507 144.46 133.64723
0.682785 56.68 134.40223
0.683064 283.49 133.94114
0.683342 -95.1 134.57304
0.683621 -24.67 134.96593
0.683899 116.64 135.63102
0.684178 -269.48 135.49235
0.684457 62.77 136.37187
0.684735 278.24 137.36705
0.685014 64.31 137.08498
0.685292 -47.64 137.85589
0.685571 114.54 137.78365
0.685849 101.42 139.10715
0.686128 89.46 139.42032
0.686407 76.76 140.03513
0.686685 136.31 141.26689
0.686964 384.5 143.02388
0.687242 212.95 141.02684
0.687521 192.08 143.24561
0.687799 82.07 143.55016
0.688078 43.69 144.07823
0.688357 -52.35 144.5809
0.688635 -70.09 144.87573
0.688914 145.04 146.31293
0.689192 -118.09 147.11468
0.689471 41.08 146.24305
0.689749 263.82 149.26218
0.690028 208.3 148.1413
0.690307 18.37 150.02545
0.690585 200.14 149.87215
0.690864 90.18 149.84753
0.691142 -25.52 151.47598
0.691421 207.12 151.3897
0.691699 229.41 152.30097
0.691978 181.22 153.12291
0.692257 113.12 152.8721
0.692535 49.67 154.37798
0.692814 20.73 155.94775
0.693092 346.44 153.64571
0.693371 -165.17 156.45694
0.693649 190.45 156.772
0.693928 95.14 158.69987
0.694207 45.82 157.2675
0.694485 276.55 158.35613
0.694764 -120.55 159.15543
0.695042 250.94 159.95546
0.695321 483.93 160.82986
0.695599 41.17 162.12038
0.695878 73.25 162.19442
0.696157 222.35 164.94211
0.696435 194.79 163.22236
0.696714 21.73 163.00618
0.696992 91.53 166.58721
0.697271 188.99 166.23829
0.697549 226.73 167.57318
0.697828 54.09 167.29757
0.698107 -14 168.33312
0.698385 -0.19 171.01273
0.698664 74.36 171.40669
0.698942 230 171.06727
0.699221 -309.43 172.14875
0.699499 327.25 173.10823
0.699778 133.71 176.37731
0.700057 218.15 174.24271
0.700335 64.47 175.90018
0.700614 52.3 180.08976
0.700892 65.8 179.52871
0.701171 5.3 180.4274
0.701449 249.77 181.82521
0.701728 -84.2 181.5724
0.702007 77.11 186.15721
0.702285 -25.85 184.92111
0.702564 171.16 185.95187
0.702842 320.33 189.1965
0.703121 -170.06 189.91918
0.703399 179.21 191.07336
0.703678 169.9 191.13464
0.703957 -92.2 194.30664
0.704235 209.61 196.85129
0.704514 352.92 196.65822
0.704792 -344.21 196.64753
0.705071 65.86 199.57789
0.705349 -226.18 200.00483
0.705628 -36.16 205.66119
0.705907 -21.4 202.91199
0.706185 76.98 207.17769
0.706464 440.09 210.27267
0.706742 313.75 207.54375
0.707021 223.88 209.09297
0.707299 327.71 209.28165
0.707578 -173.87 210.47466
0.707856 -3.22 213.123
0.708135 302.66 210.89108
0.708414 -148.04 210.0136
0.708692 333.87 213.99364
0.708971 -294.03 213.4885
0.709249 -156.24 219.94405
0.709528 -68.02 214.71445
0.709806 -79.28 220.88361
0.710085 200.75 223.54487
0.710364 303.04 226.66358
0.710642 -108.68 226.5869
0.710921 188.02 229.25247
0.711199 295.06 233.45766
0.711478 -378.02 236.60381
0.711756 337.13 236.31849
0.712035 -188.04 239.82646
0.712314 141.53 244.04723
0.712592 -330.88 246.95791
0.712871 199.98 253.59437
0.713149 83.7 249.3834
0.713428 -4.56 259.11387
0.713706 81.16 264.17439
0.713985 -158.51 264.56888
0.714264 24.96 262.84112
0.714542 103.64 268.01837
0.714821 -62.04 271.14978
0.715099 -242.48 276.37256
0.715378 77.11 271.14001
0.715656 36.57 272.77548
0.715935 244.77 281.91851
0.716214 150.84 282.84874
0.716492 347.23 285.15647
0.716771 -116.24 282.00451
0.717049 112.22 290.54724
0.717328 47.71 293.96873
0.717606 327.99 291.59855
0.717885 -304.64 294.55988
0.718164 -199.76 296.80543
0.718442 55.34 304.88927
0.718721 -15.63 310.89959
0.718999 591.42 301.14816
0.719278 778.35 315.06672
0.719556 477.51 315.78928
0.719835 395.53 321.58477
0.720114 396.49 313.70472
0.720392 158.08 317.72834
0.720671 340.28 325.05162
0.720949 103.13 335.69364
0.721228 34.37 322.72371
0.721506 250.91 330.52704
0.721785 224.61 341.22189
0.722064 311.8 343.66445
0.722342 -370.92 345.5804
0.722621 -590.73 341.99809
0.722899 157.99 358.88444
0.723178 23.19 358.87733
0.723456 -179.24 367.62664
0.723735 272.38 359.99317
0.724014 491.9 373.32178
0.724292 457.05 376.1268
0.724571 117.79 388.60366
0.724849 145.01 383.65331
0.725128 -215.41 390.5681
0.725406 416.49 406.65072
0.725685 1046.71 406.79297
0.725964 223.5 418.43041
0.726242 -61.35 414.39958
0.726521 -365.57 428.70759
0.726799 794.23 439.23706
0.727078 309.53 448.12264
0.727356 472.74 455.53984
0.727635 6.13 471.92332
0.727914 -1150.88 474.51917
0.728192 -189.27 495.32519
0.728471 843.54 509.97408
0.728749 425.31 506.42438
0.729028 260.11 527.25781
0.729306 1535.67 542.20434
0.729585 -129.97 563.79217
0.729864 145.56 589.57817
0.730142 -55.27 621.28304
0.730421 306 624.61248
0.730699 1795.1 651.53545
0.730978 849.73 684.4951
0.731256 -307.83 703.46898
0.731535 -45.79 748.24433
0.731814 -54.89 819.42
0.732092 -615.22 851.80445
0.732371 -647.13 943.24617
0.732649 -1196.12 992.60016
0.732928 419.76 1165.0609
0.733206 -1147.62 1375.703

