# Q [1/Ã…] I(Q) [a.u.] dI(Q) [a.u.]
0.00223785 -12917 24762.124
0.00251642 3615 19159.149
0.00279499 7170 13575.936
0.00307356 31778 10463.471
0.00335213 21551 7581.3056
0.0036307 26042 6351.7607
0.00390927 26043.2 4915.477
0.00418784 28372.5 4168.4735
0.00446641 17811.3 3614.195
0.00474498 27506.9 3135.1354
0.00502355 23686.4 2639.5874
0.00530212 23632.1 2339.4815
0.00558069 25814.4 2011.1742
0.00585926 28309.6 1865.1295
0.00613783 25059.5 1647.7582
0.0064164 28205.4 1413.324
0.00669497 26972.5 1399.6168
0.00697355 28061.67 1190.6123
0.00725212 25795.65 1135.6219
0.00753069 26868.08 1020.6419
0.00780926 25937.08 955.60394
0.00808783 25038.9 925.55882
0.0083664 25774.05 848.30261
0.00864497 26802.15 805.40617
0.00892354 26521.81 757.36425
0.00920211 25581.68 715.42095
0.00948068 26982.66 714.4206
0.00975925 25659.3 650.45512
0.0100378 28128.11 641.10403
0.0103164 25007.09 611.48788
0.010595 25968.65 590.88524
0.0108735 26573.53 583.72305
0.0111521 25676.06 555.49668
0.0114307 25896.78 561.17803
0.0117092 25672.03 526.755
0.0119878 25979.37 515.38353
0.0122664 25520.42 504.40824
0.012545 25682.11 484.82162
0.0128235 25897.75 487.28762
0.0131021 25664.26 471.94451
0.0133807 25601.61 458.44432
0.0136592 26110.92 455.88844
0.0139378 26578.53 439.46694
0.0142164 24561.43 438.81269
0.0144949 26217.62 427.77034
0.0147735 25369.99 419.9469
0.0150521 25721 418.65231
0.0153307 26005.3 407.06327
0.0156092 25645.01 406.33921
0.0158878 25283.06 399.69367
0.0161664 25833.78 390.70346
0.0164449 25784.79 392.5964
0.0167235 25555.76 376.49881
0.0170021 25290.87 377.00729
0.0172806 24960.32 374.57426
0.0175592 24702.51 369.23
0.0178378 25110.64 364.40788
0.0181164 24976.18 355.3448
0.0183949 25281.39 354.53399
0.0186735 24872.92 349.23532
0.0189521 24181.33 354.80071
0.0192306 25624.68 362.90701
0.0195092 25019.2 358.50193
0.0197878 24453.95 352.5754
0.0200664 24534.19 356.72035
0.0203449 24563.36 354.4855
0.0206235 24421.84 353.77516
0.0209021 24677.39 351.47296
0.0211806 24353.86 350.64186
0.0214592 24678.08 352.69256
0.0217378 25141.66 348.69902
0.0220163 24013.53 345.1032
0.0222949 24002.29 345.47715
0.0225735 24708.19 344.79874
0.0228521 23754.8 343.49587
0.0231306 24120.08 340.01922
0.0234092 25084.73 343.4366
0.0236878 23880.71 341.0313
0.0239663 23714.19 334.59207
0.0242449 23475.39 335.56883
0.0245235 24117.09 333.18812
0.024802 24273.05 336.07886
0.0250806 23405.22 332.27523
0.0253592 23131.66 323.50355
0.0256378 23598.11 322.38791
0.0259163 23668.22 313.67705
0.0261949 23150.91 312.14097
0.0264735 23244.26 305.80779
0.026752 23307.72 297.79216
0.0270306 23201.13 301.55945
0.0273092 23644.67 298.10354
0.0275877 23004.09 292.22154
0.0278663 22915.5 290.92398
0.0281449 22891.57 287.03219
0.0284235 23094.12 289.92947
0.028702 22778.69 283.05963
0.0289806 22700.28 278.45683
0.0292592 23116.27 280.19357
0.0295377 22410.78 275.59662
0.0298163 22471.03 272.57783
0.0300949 22554.17 272.33662
0.0303735 21993.12 270.09117
0.030652 22280.5 270.2924
0.0309306 22415.91 267.54121
0.0312092 22004.02 263.03121
0.0314877 22264.49 264.70123
0.0317663 21819.12 259.38402
0.0320449 21962.36 260.2809
0.0323234 22133.05 260.45964
0.032602 21880.26 254.66941
0.0328806 21856.6 254.57239
0.0331592 21672.72 252.66453
0.0334377 21603.95 252.73111
0.0337163 22000.5 255.79292
0.0339949 22043.21 255.41641
0.0342734 21380.81 260.43936
0.034552 21310.65 256.79815
0.0348306 21644.89 256.02346
0.0351091 21392.97 255.97813
0.0353877 20726.15 257.99894
0.0356663 20954.64 259.95622
0.0359449 21089.99 254.467
0.0362234 20993.9 254.64309
0.036502 21194.51 256.79652
0.0367806 21119.4 255.48935
0.0370591 20537 257.15208
0.0373377 20737.68 252.57221
0.0376163 20669.98 253.56033
0.0378949 20540.26 252.5556
0.0381734 20221.99 250.68517
0.038452 19825.49 254.02847
0.0387306 20200.17 248.30736
0.0390091 20254.24 253.9444
0.0392877 20187.77 251.23239
0.0395663 20312.5 247.12849
0.0398448 19616.15 248.54617
0.0401234 19973.95 248.23573
0.040402 19908.52 250.51385
0.0406806 19719.62 247.77992
0.0409591 19335.98 242.09541
0.0412377 19688.04 246.9494
0.0415163 19858.82 243.79267
0.0417948 18948.13 243.66356
0.0420734 18861.56 242.0992
0.042352 19322.15 242.99747
0.0426305 18879.31 246.68112
0.0429091 19001.32 244.36872
0.0431877 18960.29 247.42256
0.0434663 19399.57 247.91345
0.0437448 18336.04 251.58596
0.0440234 18455.65 251.05786
0.044302 19040.99 249.24337
0.0445805 18924.44 252.37218
0.0448591 18128.14 249.60536
0.0451377 18812.26 255.49814
0.0454163 18198.25 253.51411
0.0456948 18674.47 252.25397
0.0459734 18255.4 252.17791
0.046252 17839.86 251.64624
0.0465305 18236.58 247.8577
0.0468091 18173.19 249.5565
0.0470877 17353.09 244.01565
0.0473662 17705.51 242.8331
0.0476448 17944.51 241.10684
0.0479234 17379.18 238.7716
0.048202 17504.95 239.0124
0.0484805 17215.91 235.49865
0.0487591 17532.97 233.38697
0.0490377 16724.14 233.25123
0.0493162 17028.83 230.21715
0.0495948 17118.62 231.91261
0.0498734 17183.51 228.73161
0.0501519 16620.63 228.94216
0.0504305 16809.32 231.98875
0.0507091 17002.05 228.29019
0.0509877 16668.21 228.87914
0.0512662 16131.53 225.848
0.0515448 16677.67 226.61396
0.0518234 16226.54 228.26724
0.0521019 16123.81 226.03178
0.0523805 15969.8 227.50175
0.0526591 16311.92 227.98817
0.0529376 15692.94 222.97333
0.0532162 15599.55 224.37245
0.0534948 15948.87 224.12244
0.0537734 15488.54 222.19681
0.0540519 15249.52 220.87951
0.0543305 15575.71 221.85142
0.0546091 15348.28 220.78896
0.0548876 15277.38 217.04292
0.0551662 15405.24 217.54742
0.0554448 15162.75 217.14374
0.0557234 15002.78 215.22075
0.0560019 14984.57 215.2403
0.0562805 14970.66 212.36729
0.0565591 14746.08 212.02205
0.0568376 15304.14 213.37367
0.0571162 14898.18 211.34792
0.0573948 14266.46 210.70661
0.0576733 14500.78 209.44554
0.0579519 14304.86 210.92391
0.0582305 14071.8 209.02283
0.0585091 14561.12 209.03255
0.0587876 14258.79 208.34709
0.0590662 14139.26 208.64481
0.0593448 14069.58 207.96099
0.0596233 13593.69 206.36259
0.0599019 13344.7 205.15522
0.0601805 13900.52 207.33654
0.060459 13401.66 205.34794
0.0607376 13783.92 203.19991
0.0610162 13789.58 202.96471
0.0612948 13457.52 204.29092
0.0615733 13587.89 203.4117
0.0618519 13357.72 201.43197
0.0621305 12837.41 199.9425
0.062409 13169.99 200.0854
0.0626876 12695.59 201.87249
0.0629662 13008.99 200.16148
0.0632448 12887.46 199.33904
0.0635233 12837.22 197.91889
0.0638019 12248.78 197.98565
0.0640805 12580.06 198.25082
0.064359 12449.72 195.81303
0.0646376 12343.94 197.07773
0.0649162 12454.1 195.93651
0.0651947 12408.73 196.65797
0.0654733 12149.44 194.11496
0.0657519 12101.12 193.39219
0.0660305 12288.24 194.21182
0.066309 12081.94 192.55219
0.0665876 12059.84 192.30172
0.0668662 11764.65 191.39678
0.0671447 11823.45 191.73064
0.0674233 11645.06 192.67114
0.0677019 11533.44 190.28459
0.0679804 11729.67 190.9084
0.068259 10810.34 190.36906
0.0685376 11353.94 189.82468
0.0688162 11161.49 188.9432
0.0690947 11190.85 187.42526
0.0693733 10903.59 188.25717
0.0696519 11052.35 187.28801
0.0699304 10885.46 186.88735
0.070209 10460.99 186.13426
0.0704876 10982.1 184.43223
0.0707662 10579.93 186.50613
0.0710447 10254.1 183.93348
0.0713233 10394.01 183.9086
0.0716019 10456.88 184.57469
0.0718804 10191.23 181.92732
0.072159 10238.96 183.56464
0.0724376 10129.64 182.61483
0.0727161 10382.59 181.14926
0.0729947 9804.45 181.35755
0.0732733 9984.53 181.69033
0.0735519 9964.08 180.06401
0.0738304 9886.48 180.90011
0.074109 9750.27 179.37757
0.0743876 9719.91 178.96967
0.0746661 9341.13 177.87347
0.0749447 9534.34 177.12814
0.0752233 9419.68 177.28886
0.0755018 9249.57 176.97844
0.0757804 9597.08 178.05139
0.076059 9516.7 177.47862
0.0763376 9342.87 176.25813
0.0766161 9297.8 175.19122
0.0768947 8947.35 175.71684
0.0771733 9164.67 175.43427
0.0774518 8979.85 173.56441
0.0777304 8783.68 172.55254
0.078009 8833.57 178.5714
0.0782875 8390.63 177.61978
0.0785661 8466.35 178.09312
0.0788447 8624.72 179.95893
0.0791233 8516.52 181.04783
0.0794018 8235.77 183.93579
0.0796804 8237.9 180.90108
0.079959 8201.46 183.29182
0.0802375 8474.91 181.77375
0.0805161 8100.71 183.25663
0.0807947 7867.7 184.48112
0.0810733 8119.66 183.09133
0.0813518 7701.19 185.08487
0.0816304 7440.67 184.45386
0.081909 7678.42 185.08096
0.0821875 7395.71 185.04113
0.0824661 7450.88 184.26352
0.0827447 7736.93 187.13967
0.0830232 7556.39 185.99284
0.0833018 7037.51 184.47363
0.0835804 7587.89 186.16151
0.083859 6934.37 186.95063
0.0841375 7065.78 185.70904
0.0844161 7326.05 184.86388
0.0846947 7365.41 181.94722
0.0849732 7217.18 181.42477
0.0852518 6626.17 179.00939
0.0855304 6958.2 177.46232
0.0858089 6810.58 174.65054
0.0860875 6685.56 174.7942
0.0863661 6550.5 173.4055
0.0866447 6646.62 172.91009
0.0869232 6633.52 172.32098
0.0872018 6365.28 170.48864
0.0874804 6338.28 171.33357
0.0877589 6393.74 170.18703
0.0880375 6317.18 168.32913
0.0883161 6376.1 168.53223
0.0885947 6172.73 168.13221
0.0888732 6289.82 168.4072
0.0891518 5945.66 166.25962
0.0894304 6037.63 166.18991
0.0897089 6184.36 165.34314
0.0899875 6105.39 164.75
0.0902661 6148.59 164.04475
0.0905446 5637.32 162.76178
0.0908232 5861.05 162.82872
0.0911018 5957.87 161.42745
0.0913804 5925.67 160.87708
0.0916589 5907.85 160.71896
0.0919375 5847.5 163.45504
0.0922161 5351.47 166.58085
0.0924946 5441.08 165.86085
0.0927732 5396.36 167.45884
0.0930518 5269.56 166.3921
0.0933303 5339.85 168.52969
0.0936089 5247.54 168.86325
0.0938875 5253.27 169.65768
0.0941661 5150.34 169.43859
0.0944446 4964.56 168.70529
0.0947232 5247.68 168.28243
0.0950018 5045.12 169.12389
0.0952803 4832 169.23205
0.0955589 4930.45 170.93715
0.0958375 4847.18 167.59229
0.0961161 4959.49 165.837
0.0963946 4606.9 163.48458
0.0966732 4594.19 162.25477
0.0969518 4696.71 162.48862
0.0972303 4792.75 160.71644
0.0975089 4191.7 159.40289
0.0977875 4342.76 159.53496
0.098066 4613.27 159.35582
0.0983446 4458.13 158.17156
0.0986232 4360.75 157.56104
0.0989018 4137.34 159.10111
0.0991803 4387.17 157.53309
0.0994589 4344.75 155.46463
0.0997375 4425.48 156.14727
0.100016 4180.81 154.79304
0.100295 4251.35 154.74522
0.100573 4259.49 153.18239
0.100852 4106.09 153.35953
0.10113 4023.15 152.07515
0.101409 3998.29 151.33975
0.101687 3780.55 151.27153
0.101966 3811.6 150.95983
0.102245 4067.29 151.36653
0.102523 3945.05 150.7916
0.102802 4035 150.49344
0.10308 3610.22 149.43362
0.103359 3381.93 149.7303
0.103637 3517.22 149.17303
0.103916 3498.2 148.52663
0.104195 3518.81 149.01604
0.104473 3476.19 147.90178
0.104752 3824.89 148.0913
0.10503 3366.1 149.45837
0.105309 3126.28 146.81515
0.105587 3356.65 148.42986
0.105866 3486.74 145.48936
0.106145 3490.98 146.79424
0.106423 3102.26 146.69243
0.106702 3458.99 145.30412
0.10698 3161.41 147.16807
0.107259 2941.1 145.03268
0.107537 3257.46 145.69753
0.107816 3040.31 144.5347
0.108095 3046.06 144.1589
0.108373 3012.47 145.02819
0.108652 3018.49 144.02286
0.10893 2914.15 143.93608
0.109209 3114.91 143.96811
0.109487 2824.33 142.66218
0.109766 2845.03 143.86988
0.110045 2903.12 142.67598
0.110323 2621.76 141.94286
0.110602 2759.16 141.92861
0.11088 2602.78 142.05331
0.111159 2425.23 142.67797
0.111437 2629.58 141.12859
0.111716 2657.11 140.53436
0.111995 2709.25 140.59896
0.112273 2402.49 140.64218
0.112552 2494.47 140.86074
0.11283 2543.44 140.31524
0.113109 2528.96 140.52242
0.113387 2623.57 140.15599
0.113666 2261.8 139.28634
0.113945 2503.96 139.21627
0.114223 2216.26 138.77951
0.114502 2290.04 138.70868
0.11478 2424.21 139.75362
0.115059 2292.26 138.13009
0.115337 2207.53 138.22908
0.115616 2348.72 137.86563
0.115895 2233.81 137.2814
0.116173 2147.53 137.89659
0.116452 1913.82 136.55356
0.11673 1994.77 137.23659
0.117009 1987.57 137.29629
0.117287 1787.6 136.05563
0.117566 1850.08 136.88035
0.117845 1750.79 136.44903
0.118123 1846.86 136.55252
0.118402 1947.51 136.16016
0.11868 1742.2 134.83654
0.118959 2005.77 134.92789
0.119237 1588.73 134.24207
0.119516 1657.58 135.57134
0.119795 1632.79 134.02358
0.120073 1690.17 133.37406
0.120352 1621.23 134.35555
0.12063 1767.45 133.27033
0.120909 1904.75 133.25145
0.121187 1541.94 133.9556
0.121466 1713.61 132.45893
0.121745 1757.87 133.3316
0.122023 1564.04 131.44155
0.122302 1572.69 131.56763
0.12258 1572.43 131.6632
0.122859 1469.55 131.24694
0.123137 1790.38 132.01281
0.123416 1505.96 129.74614
0.123695 1618.18 130.13579
0.123973 1754.77 130.97097
0.124252 1585.26 129.42691
0.12453 1448.34 130.6507
0.124809 1612.11 130.16098
0.125087 1463.48 129.70179
0.125366 1354.85 129.91573
0.125645 1334.28 128.75417
0.125923 1318.96 129.93335
0.126202 1473.44 129.32332
0.12648 1187.63 129.6108
0.126759 1313.42 129.72342
0.127037 1344.76 129.11809
0.127316 1485.17 128.42649
0.127594 1146.51 128.85766
0.127873 1353.06 129.46832
0.128152 1313.95 128.66293
0.12843 1407.51 128.1975
0.128709 1327.87 128.66185
0.128987 1027.69 128.13886
0.129266 1209.74 127.57176
0.129544 890.71 127.27105
0.129823 1187.54 127.50465
0.130102 1012.35 127.9961
0.13038 1059.29 127.38261
0.130659 1101.17 126.69343
0.130937 899.43 127.07143
0.131216 957.85 126.22278
0.131494 1104.09 126.02041
0.131773 1101.91 127.00709
0.132052 947.09 125.35614
0.13233 1092.64 127.15244
0.132609 1183.25 125.63361
0.132887 908.34 125.92327
0.133166 865.72 125.84135
0.133444 1023.5 124.69894
0.133723 1041.1 125.53008
0.134002 932.81 123.96044
0.13428 1000.97 124.58017
0.134559 1018.16 125.21511
0.134837 876.4 124.37083
0.135116 633.46 124.27526
0.135394 886.24 123.20438
0.135673 832.25 123.7366
0.135952 873.81 124.6315
0.13623 639.23 123.34486
0.136509 602.22 123.78294
0.136787 858.99 123.66582
0.137066 775 125.07115
0.137344 779.67 127.10162
0.137623 1043.14 126.59345
0.137902 1142.17 128.64649
0.13818 774.1 128.39417
0.138459 780.76 128.39761
0.138737 614.13 130.10907
0.139016 788.82 129.34196
0.139294 770.52 131.70504
0.139573 736.16 130.79659
0.139852 829.46 130.63386
0.14013 722.17 131.99269
0.140409 653.89 130.88944
0.140687 888.07 131.69119
0.140966 709.23 132.29673
0.141244 610.91 131.45712
0.141523 854.72 133.53298
0.141802 545.21 132.65729
0.14208 563.63 133.5333
0.142359 657.69 132.11953
0.142637 613.78 133.43779
0.142916 616.74 134.15687
0.143194 730.01 133.77548
0.143473 475.85 134.16224
0.143752 632.89 130.91154
0.14403 525.96 131.1891
0.144309 577.66 128.46555
0.144587 552.94 127.54079
0.144866 596.21 127.12307
0.145144 677.25 126.58603
0.145423 542.84 126.59236
0.145702 368.92 125.9065
0.14598 367.56 125.10379
0.146259 322.37 125.08579
0.146537 534.63 125.44007
0.146816 561.26 124.8085
0.147094 312.92 124.83532
0.147373 527.3 123.56395
0.147652 282.21 123.28805
0.14793 557.9 123.06321
0.148209 475.55 123.18073
0.148487 314.81 122.82583
0.148766 584.23 122.41789
0.149044 411.79 121.94495
0.149323 533.09 121.552
0.149602 487.22 122.12252
0.14988 515.37 122.41106
0.150159 533 121.0724
0.150437 467.58 121.53383
0.150716 474.93 122.03053
0.150994 436.39 120.67232
0.151273 533.03 121.56138
0.151552 520.45 120.58257
0.15183 456.77 119.99555
0.152109 343.31 121.4067
0.152387 402.86 120.28038
0.152666 324.87 120.49423
0.152944 205.86 120.25642
0.153223 267.03 119.16808
0.153502 360.6 120.17752
0.15378 527.56 119.8891
0.154059 561.23 119.7233
0.154337 393.48 119.0447
0.154616 366.01 118.52596
0.154894 128.67 119.19209
0.155173 361.78 118.61055
0.155452 514.49 119.21368
0.15573 298.21 118.26845
0.156009 388.54 118.95372
0.156287 265.09 118.01282
0.156566 273.66 117.02687
0.156844 271.78 118.52881
0.157123 390.76 117.75864
0.157402 429.57 117.71674
0.15768 227.63 117.0824
0.157959 345.74 116.52024
0.158237 450.67 117.29616
0.158516 450.75 117.27199
0.158794 292.75 117.35975
0.159073 420.76 116.71685
0.159352 415.48 116.83841
0.15963 496.85 115.97888
0.159909 429.57 116.31277
0.160187 699.1 115.61138
0.160466 280.56 116.7657
0.160744 189.78 115.91129
0.161023 288.26 115.45505
0.161302 336.53 114.96025
0.16158 272.28 115.53192
0.161859 225.85 115.20217
0.162137 124.91 114.91613
0.162416 262.39 114.06602
0.162694 199.04 114.81761
0.162973 277.79 114.88952
0.163252 312.98 114.19042
0.16353 522.57 114.61996
0.163809 398.8 113.65469
0.164087 381.08 115.12039
0.164366 182.93 114.04606
0.164644 344.51 113.32897
0.164923 54.67 113.49943
0.165201 413.14 113.11688
0.16548 308.45 114.09332
0.165759 106.16 113.36295
0.166037 197.29 113.06547
0.166316 349.4 113.19426
0.166594 346.87 112.4677
0.166873 32.63 112.60001
0.167151 157.36 112.11872
0.16743 324.68 112.07176
0.167709 153.36 112.39963
0.167987 71.84 111.47039
0.168266 236.22 112.35022
0.168544 335.77 112.43324
0.168823 177.96 111.64133
0.169101 175.27 112.10275
0.16938 358.94 111.34976
0.169659 356.01 111.9761
0.169937 233.74 111.56036
0.170216 213.07 111.41917
0.170494 266.05 111.37647
0.170773 185.85 111.09023
0.171051 222.47 111.51409
0.17133 77.22 111.45024
0.171609 -37.75 111.05714
0.171887 165.5 111.15551
0.172166 272.13 111.58067
0.172444 199.63 111.62121
0.172723 129.27 111.46946
0.173001 247.96 111.16466
0.17328 540.18 111.05505
0.173559 278.72 111.5578
0.173837 206.46 110.47729
0.174116 20 111.17413
0.174394 89.79 110.65342
0.174673 368.56 110.66633
0.174951 276.34 110.67604
0.17523 491.68 110.05137
0.175509 91.07 111.04274
0.175787 293.25 110.11155
0.176066 355.83 110.06423
0.176344 270.03 109.96269
0.176623 57.49 109.69224
0.176901 94.36 110.31663
0.17718 233.23 109.24
0.177459 253.18 110.20963
0.177737 332.66 109.95182
0.178016 232.22 109.2152
0.178294 154.27 110.08527
0.178573 81.76 108.9081
0.178851 233.28 109.97028
0.17913 384.94 109.02642
0.179409 175.33 109.46487
0.179687 323.33 109.54446
0.179966 333.89 109.46019
0.180244 229.13 109.31268
0.180523 165.27 108.91297
0.180801 228.73 108.64062
0.18108 215.46 109.07036
0.181359 106.99 108.61536
0.181637 168.65 108.68515
0.181916 73.48 108.29831
0.182194 88.28 108.94597
0.182473 76.82 108.88071
0.182751 289.31 108.32422
0.18303 324.6 109.52487
0.183309 177.58 108.89324
0.183587 285.73 109.41734
0.183866 287.37 109.53814
0.184144 235.21 108.90364
0.184423 285.64 109.76711
0.184701 244.14 110.01143
0.18498 333.19 109.87865
0.185259 287.04 109.59866
0.185537 440.41 109.17172
0.185816 244.67 109.75769
0.186094 250.8 109.49767
0.186373 262.31 109.30497
0.186651 268.02 108.8709
0.18693 158.08 109.05812
0.187209 443.53 108.77761
0.187487 253.37 108.7832
0.187766 224.27 108.34469
0.188044 217.91 108.11786
0.188323 149.59 108.39646
0.188601 35.5 107.65482
0.18888 152.13 108.01822
0.189159 206.2 107.60247
0.189437 203.92 107.76226
0.189716 344.5 107.94492
0.189994 216.67 107.48857
0.190273 312.05 107.32419
0.190551 220.5 107.02166
0.19083 272.37 106.55788
0.191109 79.44 107.48939
0.191387 329.85 106.68948
0.191666 23.48 107.59714
0.191944 120.71 106.95502
0.192223 178.2 106.35389
0.192501 46.39 107.08734
0.19278 199.78 106.05337
0.193059 168.36 106.73589
0.193337 326.55 106.04806
0.193616 251.34 106.49142
0.193894 36.25 106.39269
0.194173 189.59 105.28871
0.194451 343.5 105.78502
0.19473 181.27 106.65164
0.195009 38.97 105.51731
0.195287 96.32 105.66538
0.195566 167.82 105.13979
0.195844 105.83 106.0655
0.196123 265.49 106.76735
0.196401 441.05 107.89319
0.19668 233.45 108.93831
0.196959 90.64 108.40327
0.197237 249.66 109.557
0.197516 136.17 109.86593
0.197794 213.46 109.62286
0.198073 194.63 111.20884
0.198351 85.84 110.71941
0.19863 163.72 111.04942
0.198909 232.38 111.23395
0.199187 121.48 110.65487
0.199466 427.22 112.4436
0.199744 131.35 111.67832
0.200023 328.22 111.99676
0.200301 217.72 112.59073
0.20058 211.25 112.92816
0.200858 200.63 113.65074
0.201137 157 112.57421
0.201416 393.97 113.4103
0.201694 186.31 113.90602
0.201973 122.03 113.78634
0.202251 183.96 114.66469
0.20253 240.37 115.38015
0.202808 45.65 112.62624
0.203087 38.75 112.36072
0.203366 449.71 111.44858
0.203644 141.61 110.9811
0.203923 241 109.92095
0.204201 249.06 109.46758
0.20448 256.04 110.37763
0.204758 267.26 108.60857
0.205037 204.37 108.86824
0.205316 273.39 108.84886
0.205594 133.6 108.59566
0.205873 354.08 108.23191
0.206151 189.92 107.33717
0.20643 108 107.79179
0.206708 193.14 107.47204
0.206987 308.92 106.96391
0.207266 271.95 107.46671
0.207544 38.85 107.24758
0.207823 286.08 108.53417
0.208101 232.71 106.90296
0.20838 187.18 107.33882
0.208658 160.33 107.53908
0.208937 422.95 106.79477
0.209216 31.84 107.53069
0.209494 202.08 106.02138
0.209773 124.03 105.77105
0.210051 286.06 106.57723
0.21033 82.2 106.05322
0.210608 159.5 106.6424
0.210887 230.2 105.70512
0.211166 208.43 105.66182
0.211444 113.67 105.26684
0.211723 263.7 104.95258
0.212001 240.04 106.01929
0.21228 288.9 104.97504
0.212558 187.81 105.91929
0.212837 78.72 105.07645
0.213116 224.64 103.93859
0.213394 365.65 104.73327
0.213673 111.41 105.06928
0.213951 126.42 105.12006
0.21423 255.44 104.51216
0.214508 168.06 104.62389
0.214787 167.82 104.33334
0.215066 191.99 104.55735
0.215344 295.02 104.36577
0.215623 178.52 104.66524
0.215901 175.9 104.54936
0.21618 268.77 104.30775
0.216458 327.77 104.20113
0.216737 200.97 103.68096
0.217016 166.98 103.2495
0.217294 198.45 103.94656
0.217573 97.73 103.50571
0.217851 253.63 103.02333
0.21813 195.88 103.37567
0.218408 371.75 103.22449
0.218687 131.58 102.61434
0.218966 197.66 103.03884
0.219244 222.01 103.13512
0.219523 206.4 102.93397
0.219801 182.15 102.87414
0.22008 159.37 102.19993
0.220358 264.98 102.31632
0.220637 120.84 102.99652
0.220916 412.1 102.51694
0.221194 186.21 102.06245
0.221473 111.42 101.61177
0.221751 133.52 102.19934
0.22203 183.11 102.04558
0.222308 163 102.16253
0.222587 260.38 101.66361
0.222866 238.56 102.29782
0.223144 281.46 101.70371
0.223423 249.81 102.38729
0.223701 233.08 101.32145
0.22398 310.54 101.90427
0.224258 233.07 102.34262
0.224537 -135.12 101.78773
0.224816 310.67 101.70644
0.225094 49.33 101.63699
0.225373 248.52 101.99534
0.225651 185.23 101.65836
0.22593 -14.12 101.24878
0.226208 182.99 101.56042
0.226487 127.91 101.30765
0.226766 237.5 101.496
0.227044 151.55 100.65496
0.227323 248.91 101.27092
0.227601 129.55 100.77528
0.22788 45.39 100.69089
0.228158 210.42 100.16911
0.228437 137.84 100.68135
0.228716 129.62 100.39162
0.228994 68.13 100.19424
0.229273 104.84 100.32267
0.229551 139.99 100.27358
0.22983 119.75 100.65911
0.230108 148.88 100.04166
0.230387 292.68 100.02467
0.230666 128.76 100.07698
0.230944 298.28 100.20803
0.231223 60.98 100.05872
0.231501 84.19 100.78641
0.23178 257.6 100.58535
0.232058 224.94 101.20506
0.232337 232.06 100.77092
0.232616 225.56 101.62409
0.232894 86 100.88647
0.233173 274.46 101.62897
0.233451 -15.64 102.2531
0.23373 292.83 101.48782
0.234008 127.02 101.5249
0.234287 161.94 101.97493
0.234566 -30.64 101.34519
0.234844 119.17 101.54118
0.235123 134.15 101.37496
0.235401 152.5 101.88772
0.23568 91.81 101.07179
0.235958 220.39 101.03442
0.236237 48.68 101.4046
0.236515 88.69 100.58522
0.236794 102.9 101.26866
0.237073 112.65 100.63383
0.237351 140.07 100.57905
0.23763 125.99 100.23305
0.237908 99.2 100.72194
0.238187 131.47 100.03898
0.238465 105.89 100.06179
0.238744 300.3 100.17776
0.239023 253.98 100.40039
0.239301 383.04 99.827063
0.23958 100.51 100.49243
0.239858 143.93 99.26719
0.240137 71.12 99.979582
0.240415 94.86 99.065701
0.240694 149.73 99.411139
0.240973 100.14 99.734609
0.241251 241.96 99.398411
0.24153 119.97 99.569688
0.241808 92.12 99.061352
0.242087 101.72 99.122405
0.242365 1.36 98.735697
0.242644 27.81 98.813743
0.242923 221.44 98.866017
0.243201 250.81 99.037728
0.24348 131.96 98.102851
0.243758 251.77 98.589775
0.244037 27.49 97.891067
0.244315 -76.87 97.621352
0.244594 107.69 97.901756
0.244873 240.23 97.72291
0.245151 191.53 97.046838
0.24543 271.69 97.881194
0.245708 344.08 97.379264
0.245987 210.24 97.115138
0.246265 137.3 97.506781
0.246544 151.2 96.957897
0.246823 285.8 97.458442
0.247101 390.07 97.212121
0.24738 162.75 97.113592
0.247658 205.69 97.239079
0.247937 12.57 97.066252
0.248215 221.34 97.502667
0.248494 214.57 97.093054
0.248773 213.69 97.216236
0.249051 246.79 97.193943
0.24933 395.53 97.128132
0.249608 204.55 96.966407
0.249887 224.74 97.032486
0.250165 66.57 97.329782
0.250444 45.17 97.135668
0.250723 114.51 96.289799
0.251001 257.76 97.056696
0.25128 239 96.804353
0.251558 179.68 97.006941
0.251837 77.38 96.493635
0.252115 208.43 96.624904
0.252394 137.82 96.793799
0.252673 203.07 96.47438
0.252951 244.27 96.484415
0.25323 186.18 96.158638
0.253508 23.97 96.034007
0.253787 98.08 96.493258
0.254065 115.25 96.064348
0.254344 87.44 96.427021
0.254623 131.63 95.929849
0.254901 152.72 96.44727
0.25518 224.21 97.493199
0.255458 32.66 97.713303
0.255737 73.98 99.153267
0.256015 158.64 99.846116
0.256294 330.96 99.969291
0.256573 253.78 99.930148
0.256851 215.71 100.34898
0.25713 72.32 100.77329
0.257408 225.33 101.06323
0.257687 188.12 101.61374
0.257965 268.68 101.68421
0.258244 16.61 102.3997
0.258523 190.24 102.76106
0.258801 219.96 102.35828
0.25908 67.88 102.82192
0.259358 293.43 102.62905
0.259637 41.98 103.73579
0.259915 74.18 102.79217
0.260194 269.09 103.68233
0.260473 134 103.73992
0.260751 240.78 103.56294
0.26103 39.45 104.86899
0.261308 239.31 104.2856
0.261587 22.39 104.49222
0.261865 -34.7 102.89649
0.262144 99.74 102.19626
0.262423 239.24 101.77248
0.262701 169.61 100.93647
0.26298 179.16 100.84044
0.263258 353.68 100.5874
0.263537 121.3 99.88816
0.263815 179.39 100.44259
0.264094 223.91 99.074098
0.264373 -0.87 100.23396
0.264651 33.35 99.095939
0.26493 94.3 98.909974
0.265208 85.82 99.792219
0.265487 72.97 98.677249
0.265765 118.34 99.674899
0.266044 -40.56 98.512206
0.266323 38.57 98.970143
0.266601 27.04 98.531363
0.26688 55.14 98.192806
0.267158 280.56 98.794843
0.267437 90.31 97.687384
0.267715 124.26 98.097798
0.267994 113.39 97.555396
0.268273 199.82 96.897035
0.268551 192.24 97.66758
0.26883 99.66 96.597476
0.269108 114.91 96.7608
0.269387 254.48 96.550458
0.269665 -13.11 95.833483
0.269944 115.01 96.423096
0.270223 306.27 96.149496
0.270501 101.06 96.122218
0.27078 -124.56 96.333716
0.271058 74.22 95.547477
0.271337 222.22 95.609496
0.271615 158.67 95.612537
0.271894 157.79 95.581737
0.272172 99.19 95.612686
0.272451 29.36 94.956741
0.27273 70.01 95.533977
0.273008 -18.3 95.794131
0.273287 144.57 95.25368
0.273565 85.57 95.765886
0.273844 166.82 95.408128
0.274122 39.76 95.453478
0.274401 117.32 95.484014
0.27468 166.23 94.940672
0.274958 126.11 94.969778
0.275237 63.7 94.941946
0.275515 112.01 94.937481
0.275794 98.88 94.855494
0.276072 42.67 94.722205
0.276351 -3.08 94.775839
0.27663 177.1 94.104504
0.276908 172.67 94.710046
0.277187 97.3 95.111842
0.277465 118.98 94.376617
0.277744 139.22 94.951531
0.278022 180.11 94.251224
0.278301 128.18 94.483958
0.27858 234.24 94.829574
0.278858 126.56 94.254575
0.279137 62.41 94.368815
0.279415 120.73 94.167741
0.279694 234.17 94.487745
0.279972 -33.47 94.48338
0.280251 -9.72 93.957686
0.28053 182.95 94.013488
0.280808 132.31 94.202597
0.281087 65.08 93.647015
0.281365 -133.64 93.937899
0.281644 14.91 94.261726
0.281922 191.52 94.035045
0.282201 63.93 94.07734
0.28248 99.73 93.784459
0.282758 -22.21 93.50133
0.283037 100.01 93.24755
0.283315 69.19 94.02265
0.283594 152.9 93.183506
0.283872 48.02 93.579788
0.284151 234.66 93.684381
0.28443 103.23 93.44199
0.284708 -10.66 93.186062
0.284987 217.81 93.780212
0.285265 165.47 93.69279
0.285544 95.15 92.703584
0.285822 89.29 93.216445
0.286101 71.22 93.16591
0.28638 -35.67 93.118512
0.286658 -1.29 92.875081
0.286937 145.77 92.914513
0.287215 97.41 92.763095
0.287494 220.98 92.788599
0.287772 -61.53 93.114864
0.288051 26.59 93.093353
0.28833 -18.49 92.821889
0.288608 77.19 92.271046
0.288887 206.31 92.870252
0.289165 36.91 92.882975
0.289444 208.3 92.248113
0.289722 137.21 92.479812
0.290001 -23.3 92.339123
0.29028 224.1 92.530811
0.290558 171.98 93.002002
0.290837 264.68 92.067109
0.291115 155.55 92.131849
0.291394 252.63 92.463092
0.291672 98.25 92.450643
0.291951 114.27 92.545898
0.29223 -89.49 91.503908
0.292508 61.85 92.439679
0.292787 224.52 92.048879
0.293065 -76.9 92.196041
0.293344 8.76 92.172858
0.293622 123.52 91.449291
0.293901 65.63 92.297315
0.29418 137.97 92.04426
0.294458 183.64 91.489549
0.294737 36.65 91.624449
0.295015 106.53 91.57851
0.295294 96.68 91.618467
0.295572 67.15 91.551178
0.295851 33.67 91.006172
0.29613 22.42 91.545434
0.296408 -14.75 91.571487
0.296687 24.52 91.892653
0.296965 203.32 91.18311
0.297244 260.73 91.248606
0.297522 74.02 91.566995
0.297801 -43.54 91.100981
0.29808 -72.12 91.357177
0.298358 -112.26 91.082562
0.298637 -32.53 91.529277
0.298915 309.09 91.259314
0.299194 -71.7 91.105946
0.299472 72.88 90.674192
0.299751 113.87 91.541292
0.30003 72.9 90.800868
0.300308 86.78 90.830502
0.300587 6.23 90.70047
0.300865 149.67 90.994558
0.301144 -166.21 90.773227
0.301422 196.86 90.579051
0.301701 181.26 90.802615
0.30198 -56.12 91.137318
0.302258 -3.78 90.682079
0.302537 24.32 90.670657
0.302815 146.45 90.274841
0.303094 20.34 90.407301
0.303372 98.91 90.713075
0.303651 50.72 90.138181
0.30393 -5.25 90.201674
0.304208 -81.8 90.394398
0.304487 45.91 89.613026
0.304765 -62.78 90.679739
0.305044 110.86 89.397859
0.305322 152.97 90.027758
0.305601 56.07 89.88743
0.30588 194.15 89.498303
0.306158 168.77 89.749493
0.306437 49.19 89.604975
0.306715 22.61 90.116585
0.306994 -29.95 89.534893
0.307272 -21.2 89.786073
0.307551 168.51 89.45593
0.30783 25.63 89.426581
0.308108 34.58 90.144846
0.308387 38.29 89.693283
0.308665 42.19 89.623877
0.308944 101.26 89.590558
0.309222 73.32 89.795445
0.309501 71.39 89.565848
0.309779 222.92 89.700153
0.310058 91.9 89.861899
0.310337 174.11 89.560606
0.310615 83.85 89.455832
0.310894 129.98 90.062828
0.311172 -88.32 89.338345
0.311451 105.39 89.845855
0.311729 -35.72 89.618438
0.312008 -72.84 89.238192
0.312287 83 89.55058
0.312565 54.33 89.146602
0.312844 146.85 89.776525
0.313122 -20.17 89.4125
0.313401 109.01 89.780172
0.313679 0.04 89.116637
0.313958 140.15 89.119062
0.314237 177.92 90.00168
0.314515 13.17 91.187726
0.314794 -25.48 91.482062
0.315072 -33.65 91.986761
0.315351 17.53 92.580472
0.315629 16.91 92.902313
0.315908 8.69 93.238743
0.316187 197.24 93.413838
0.316465 49.52 93.351324
0.316744 168.89 94.721198
0.317022 16.45 94.194058
0.317301 -182.53 94.275257
0.317579 -95.53 94.119172
0.317858 25.28 94.698188
0.318137 150.27 95.316534
0.318415 -7.86 94.878481
0.318694 -27.12 96.13387
0.318972 50.47 95.987933
0.319251 65.51 96.259703
0.319529 181.11 96.691173
0.319808 228.41 96.247186
0.320087 287.68 97.404368
0.320365 -21.84 96.8521
0.320644 -88.86 96.933181
0.320922 54.71 96.515003
0.321201 79.62 94.389612
0.321479 51.83 95.169909
0.321758 -6.25 93.89139
0.322037 149.26 93.528402
0.322315 24.01 93.712235
0.322594 56.42 93.141767
0.322872 157.93 93.696044
0.323151 42.77 92.441433
0.323429 121.73 92.309892
0.323708 113.32 92.618831
0.323987 -75.49 92.162644
0.324265 36.71 92.429394
0.324544 32.14 92.468465
0.324822 -48.34 91.848978
0.325101 0.32 92.102346
0.325379 -10.92 92.077441
0.325658 -2.15 91.458618
0.325937 59.25 91.786325
0.326215 -45.24 91.346052
0.326494 69.4 91.489796
0.326772 -59.8 91.112268
0.327051 142.3 91.169284
0.327329 58.8 91.30288
0.327608 -26.76 90.779593
0.327887 47.79 90.897675
0.328165 71.24 90.612253
0.328444 -155.13 89.930514
0.328722 196.64 90.964683
0.329001 138.9 89.698798
0.329279 133.34 90.385564
0.329558 26.03 90.654385
0.329837 125.53 89.8785
0.330115 117.35 90.110275
0.330394 108.24 89.928327
0.330672 -28.17 90.113675
0.330951 -23.74 89.975808
0.331229 280.26 89.426222
0.331508 84.75 89.790161
0.331787 -10.02 89.373202
0.332065 25.18 89.397476
0.332344 -112.66 89.500543
0.332622 47.82 89.094157
0.332901 6.93 90.211826
0.333179 48.55 88.760787
0.333458 -137.57 89.408989
0.333737 14.09 89.216747
0.334015 109.9 89.517871
0.334294 127.42 90.030568
0.334572 7.03 88.948423
0.334851 90.75 89.103827
0.335129 180.59 89.695946
0.335408 22.34 88.718591
0.335687 102.14 89.53632
0.335965 54.11 89.241469
0.336244 66.04 89.192078
0.336522 133.36 89.335785
0.336801 -56.21 88.452092
0.337079 143.74 89.061086
0.337358 44.26 88.952887
0.337637 81.53 89.120567
0.337915 133.95 89.207069
0.338194 93.55 88.225747
0.338472 221.08 88.786357
0.338751 0.2 88.485971
0.339029 110.78 88.48499
0.339308 19.28 88.290138
0.339587 184.24 88.27172
0.339865 -79.24 88.868398
0.340144 21.35 88.453782
0.340422 203.25 88.325257
0.340701 10.34 88.310148
0.340979 -4.16 88.34763
0.341258 -5.35 87.861894
0.341537 -5.83 88.103137
0.341815 80.99 87.901765
0.342094 -36.16 87.846583
0.342372 -31.81 88.125632
0.342651 -21.57 87.619308
0.342929 151.34 87.559269
0.343208 -86.13 87.61829
0.343487 127.55 88.008382
0.343765 199.07 87.585874
0.344044 194.72 87.276583
0.344322 249.18 87.20292
0.344601 -0.55 87.513867
0.344879 76.62 87.613106
0.345158 17.31 87.00615
0.345436 207.36 87.063518
0.345715 161.18 87.44216
0.345994 186.41 86.849483
0.346272 24.13 86.797726
0.346551 16.09 87.067959
0.346829 120.86 86.838638
0.347108 -158.55 86.974595
0.347386 89.52 86.574508
0.347665 175.9 86.840033
0.347944 76.34 86.39463
0.348222 110.19 86.889678
0.348501 16.97 87.144992
0.348779 -15 86.664597
0.349058 43.99 86.809024
0.349336 147.8 87.495804
0.349615 74.87 86.429726
0.349894 105.22 86.963662
0.350172 80.21 86.370772
0.350451 -96.53 87.116861
0.350729 -30.63 86.997742
0.351008 111.1 86.559529
0.351286 139.76 87.069711
0.351565 129.5 86.177482
0.351844 34.53 87.188107
0.352122 43.42 86.630741
0.352401 -33.77 86.723146
0.352679 180.66 86.857002
0.352958 -5.15 86.758594
0.353236 -121.78 86.573872
0.353515 61.07 86.384455
0.353794 106.96 86.615203
0.354072 196.75 86.685566
0.354351 119.5 86.867375
0.354629 60.9 86.491179
0.354908 23.79 87.099103
0.355186 -18.16 86.610819
0.355465 27.12 86.927295
0.355744 175.85 86.542136
0.356022 -10.56 86.253561
0.356301 135.65 86.798811
0.356579 108.36 86.63555
0.356858 111.02 86.90418
0.357136 171.95 86.576838
0.357415 93.26 86.554388
0.357694 18.01 86.83534
0.357972 58.24 86.311211
0.358251 -14.53 86.771595
0.358529 143.94 87.288692
0.358808 -19.3 86.319138
0.359086 223.05 86.690082
0.359365 -79.43 86.519037
0.359644 32.08 86.315206
0.359922 162.06 86.671992
0.360201 180.51 86.405796
0.360479 153.09 86.602305
0.360758 6.34 86.476108
0.361036 224.05 86.730837
0.361315 194.75 86.78591
0.361594 97.38 86.520729
0.361872 168.8 86.622629
0.362151 5.81 86.236884
0.362429 52.4 86.345027
0.362708 74.99 86.284708
0.362986 22.62 86.23726
0.363265 -20.11 86.582001
0.363544 38.91 86.267227
0.363822 -91.14 86.020307
0.364101 87.85 86.565735
0.364379 101.77 86.050842
0.364658 58.2 86.575998
0.364936 -9.09 86.136775
0.365215 169.2 86.194318
0.365494 -1.13 86.126587
0.365772 -21.3 86.089347
0.366051 100.02 86.411224
0.366329 -11.02 85.663483
0.366608 112.77 86.082783
0.366886 -18.57 86.32987
0.367165 54.01 85.822962
0.367444 -4.43 86.352628
0.367722 66.41 85.994687
0.368001 115.87 85.600708
0.368279 78.45 86.453466
0.368558 8.76 85.956504
0.368836 -19.39 86.221445
0.369115 7.92 86.152253
0.369394 95.86 86.44719
0.369672 -175.87 86.374025
0.369951 -37.93 86.357853
0.370229 -74.89 86.236777
0.370508 38.81 86.165029
0.370786 120.23 86.468549
0.371065 141.26 86.382551
0.371344 142.65 86.164803
0.371622 92.91 86.503234
0.371901 5.23 86.311193
0.372179 121.17 86.206708
0.372458 54.89 86.214586
0.372736 133.69 86.598879
0.373015 89.33 86.523864
0.373294 56.07 87.446054
0.373572 12.08 88.206994
0.373851 124.34 89.042574
0.374129 5.37 89.399623
0.374408 -25.36 90.146615
0.374686 -226.72 90.279306
0.374965 71.55 90.659261
0.375244 43.58 91.393322
0.375522 -61.34 91.186863
0.375801 136.09 91.213266
0.376079 81.75 91.95082
0.376358 47.77 91.703071
0.376636 132.37 92.17283
0.376915 181.82 91.635539
0.377194 166.89 92.538771
0.377472 98.59 92.982144
0.377751 89.71 92.635843
0.378029 228.65 93.976634
0.378308 182.29 92.94621
0.378586 135.14 93.644564
0.378865 60.95 94.115871
0.379144 285.83 93.201582
0.379422 53.47 94.582928
0.379701 51.97 94.228366
0.379979 155.92 93.512541
0.380258 15.42 92.313272
0.380536 37.12 91.702005
0.380815 256.83 91.552265
0.381093 192.92 91.075123
0.381372 99.49 91.030706
0.381651 5.52 91.244585
0.381929 158.6 90.305466
0.382208 130.62 90.060851
0.382486 105.46 90.451815
0.382765 128.66 90.251508
0.383043 -2.71 90.21826
0.383322 -29.77 90.163802
0.383601 111.3 90.001465
0.383879 80.16 89.716328
0.384158 162.54 89.568771
0.384436 167.84 89.583187
0.384715 56.41 90.125147
0.384993 43.7 88.848788
0.385272 99.74 89.108394
0.385551 108.86 88.839897
0.385829 29.87 89.076099
0.386108 -43.17 89.169209
0.386386 71.46 88.51015
0.386665 35.52 89.084323
0.386943 7.57 88.447813
0.387222 -9.52 88.902495
0.387501 169.91 88.526822
0.387779 82.49 88.970436
0.388058 -0.39 88.759162
0.388336 31.86 88.525264
0.388615 42.25 88.545847
0.388893 65.73 88.462786
0.389172 145.21 88.420112
0.389451 115.97 88.897746
0.389729 167.02 88.025263
0.390008 -123.89 87.866893
0.390286 3.98 88.143808
0.390565 145.94 87.651818
0.390843 -91.83 88.011375
0.391122 -2.44 87.404166
0.391401 -104.86 87.861138
0.391679 -32.36 88.191974
0.391958 5.65 87.58348
0.392236 146.74 87.990273
0.392515 -21.13 87.606912
0.392793 -76.61 87.894794
0.393072 211.06 87.749284
0.393351 95.98 87.091844
0.393629 55 88.091955
0.393908 243.38 87.289693
0.394186 17.85 87.658216
0.394465 -62.88 87.641188
0.394743 282.26 87.359131
0.395022 14.54 87.617786
0.395301 79.22 87.47952
0.395579 72.8 87.852481
0.395858 30.5 87.497799
0.396136 79.74 87.993193
0.396415 69.8 87.843355
0.396693 136.93 87.57709
0.396972 92.94 87.803791
0.397251 33.51 88.035215
0.397529 150.95 88.353388
0.397808 -61.15 88.101007
0.398086 64.52 87.596921
0.398365 128.81 88.197282
0.398643 43.03 88.094277
0.398922 183.26 88.131229
0.399201 -41.78 88.123254
0.399479 210.02 87.930984
0.399758 -172.94 88.265212
0.400036 64.02 88.162178
0.400315 -80.49 88.017353
0.400593 88.76 88.221799
0.400872 36.02 87.906932
0.401151 99.91 88.198083
0.401429 118.31 87.850097
0.401708 6.5 88.121037
0.401986 -18.4 88.317482
0.402265 -2.8 88.313225
0.402543 103.82 88.114846
0.402822 208.65 88.571647
0.403101 75.83 88.051803
0.403379 45.24 88.078613
0.403658 127.62 88.370575
0.403936 136.5 87.647536
0.404215 74.48 88.636538
0.404493 -10.32 88.300709
0.404772 172.9 88.016698
0.405051 136.01 88.603708
0.405329 245.97 88.102607
0.405608 48.04 88.621489
0.405886 -43.34 88.360827
0.406165 -60.2 88.074065
0.406443 85.46 88.114143
0.406722 76.81 88.772104
0.407001 253.79 88.428275
0.407279 193.08 88.541088
0.407558 68.69 88.342731
0.407836 -47.23 88.446285
0.408115 221.56 88.182429
0.408393 54.29 88.812169
0.408672 151.45 87.885003
0.408951 43.13 88.308248
0.409229 -52.46 88.168346
0.409508 -17.67 88.021635
0.409786 -74.34 88.321647
0.410065 1.88 87.539926
0.410343 62.18 88.518117
0.410622 70.83 87.993001
0.410901 55.53 88.171634
0.411179 125.42 87.943458
0.411458 12.21 88.257311
0.411736 191.53 87.625958
0.412015 48.87 88.407444
0.412293 48.09 88.008613
0.412572 157.78 87.695509
0.412851 1.54 88.156722
0.413129 132.08 87.900358
0.413408 45.06 87.985679
0.413686 -100.59 88.178218
0.413965 137.86 87.756964
0.414243 82.52 88.376716
0.414522 115.21 87.789194
0.414801 30.07 88.091179
0.415079 39.55 88.327284
0.415358 100.75 88.100623
0.415636 14.2 88.262293
0.415915 89.37 87.571943
0.416193 59.21 87.672181
0.416472 153.49 87.859919
0.416751 -65.27 87.469095
0.417029 241.76 87.968211
0.417308 166.96 87.538487
0.417586 -93.82 87.553895
0.417865 -51.2 87.888589
0.418143 123.48 87.229689
0.418422 50.78 87.82374
0.4187 87.97 87.19641
0.418979 22.89 88.020509
0.419258 60.17 87.406752
0.419536 -57.22 87.380585
0.419815 37.98 87.950078
0.420093 91.2 87.747392
0.420372 41.49 87.275744
0.42065 67.29 87.959789
0.420929 26.67 87.559001
0.421208 76.27 87.934264
0.421486 26.59 87.929585
0.421765 121.89 87.953165
0.422043 160.58 87.5924
0.422322 83.55 88.005543
0.4226 -4.87 87.935851
0.422879 125.17 87.575957
0.423158 85.13 88.278366
0.423436 40.43 87.738725
0.423715 81.73 87.90595
0.423993 -16.34 88.421592
0.424272 281.71 88.074392
0.42455 83.47 87.955285
0.424829 24.25 87.859979
0.425108 -35.38 88.154844
0.425386 -55.56 87.839969
0.425665 -50.8 87.85959
0.425943 204.78 87.940429
0.426222 -53.26 87.86314
0.4265 179.48 88.347319
0.426779 109.22 88.410929
0.427058 153.72 88.220973
0.427336 41.93 88.080102
0.427615 76.82 88.710949
0.427893 29.34 88.101832
0.428172 192.14 88.092919
0.42845 1.92 88.499332
0.428729 76.07 87.819697
0.429008 104.3 88.310164
0.429286 11.78 88.125897
0.429565 71.43 88.238153
0.429843 120.05 88.284593
0.430122 65.87 87.834101
0.4304 92.75 88.581412
0.430679 154.47 88.109601
0.430958 -77.04 88.630492
0.431236 45.09 88.374026
0.431515 45.09 88.56942
0.431793 3.8 88.82023
0.432072 210.08 88.04471
0.43235 7.83 89.949694
0.432629 66.58 90.625402
0.432908 56.91 91.207495
0.433186 114.76 92.796093
0.433465 146.38 92.243844
0.433743 229.4 93.695577
0.434022 44.45 93.286481
0.4343 223.01 94.261482
0.434579 70.65 94.651666
0.434858 -13.39 94.382167
0.435136 83.04 95.471118
0.435415 37.05 95.433009
0.435693 238.27 95.352378
0.435972 -23.7 96.850765
0.43625 -144.96 96.03472
0.436529 19.18 97.024366
0.436808 109.03 97.336243
0.437086 34.33 97.328966
0.437365 -24.79 98.330193
0.437643 108.13 97.402811
0.437922 19.25 98.855483
0.4382 44.68 98.858417
0.438479 59.86 99.075031
0.438758 15.62 99.488201
0.439036 -48.29 97.024118
0.439315 133.88 96.403707
0.439593 -91.53 95.701592
0.439872 225.37 95.638663
0.44015 41.7 95.434753
0.440429 43.67 94.006925
0.440708 87.49 94.234039
0.440986 -12.89 94.172262
0.441265 180.06 94.390931
0.441543 21.82 94.329595
0.441822 178.53 94.170857
0.4421 100.96 93.720133
0.442379 138.4 93.779153
0.442658 333.11 93.436106
0.442936 -162.5 93.04934
0.443215 184.8 93.259337
0.443493 -136.89 92.592194
0.443772 15.36 92.924365
0.44405 75.32 92.607928
0.444329 218.86 93.342747
0.444608 118.6 92.834899
0.444886 213.07 92.589823
0.445165 64.53 92.714298
0.445443 137.44 92.81984
0.445722 129.52 92.541594
0.446 25.43 92.97294
0.446279 -21.98 92.708188
0.446558 170.62 92.562096
0.446836 76.04 92.87802
0.447115 44.49 92.314843
0.447393 32.63 92.663269
0.447672 96.58 91.908553
0.44795 42.13 92.005168
0.448229 106.24 91.8799
0.448508 152.1 91.8831
0.448786 21.04 91.894907
0.449065 119.58 92.177939
0.449343 113.99 91.777553
0.449622 98.6 92.114494
0.4499 25.75 91.271207
0.450179 151.71 92.009256
0.450458 145.06 91.606359
0.450736 221.69 91.410911
0.451015 -149.12 90.76671
0.451293 285.89 91.582408
0.451572 -80.8 91.025634
0.45185 249.71 91.174702
0.452129 53.28 91.180895
0.452408 174.17 91.421493
0.452686 59.22 91.455662
0.452965 125.06 90.484429
0.453243 101.6 91.743404
0.453522 37.49 91.201887
0.4538 54.32 90.954491
0.454079 141.53 91.180306
0.454357 295.74 90.797513
0.454636 63.2 90.992643
0.454915 12.87 91.697464
0.455193 147.23 90.582313
0.455472 55.29 91.517223
0.45575 165.45 90.831567
0.456029 168.06 91.298551
0.456307 -1.25 91.359591
0.456586 149.37 90.737776
0.456865 89.14 91.12658
0.457143 46 90.598759
0.457422 220.7 91.305595
0.4577 29.57 90.62446
0.457979 30.27 91.093337
0.458257 133.66 90.91039
0.458536 -92.69 90.983107
0.458815 131.87 90.958704
0.459093 90.77 90.691611
0.459372 6.93 90.901252
0.45965 63.7 90.959108
0.459929 7.49 90.187392
0.460207 -8.88 91.043855
0.460486 82.15 90.56659
0.460765 0.38 91.189833
0.461043 31.88 91.031963
0.461322 -96.98 90.746307
0.4616 -76.24 90.882203
0.461879 35.64 90.435143
0.462157 165.95 91.325812
0.462436 161.05 90.900839
0.462715 -92.57 90.514275
0.462993 2.89 91.26428
0.463272 147.87 90.492186
0.46355 151.27 91.444042
0.463829 34.32 90.720979
0.464107 45.44 90.884636
0.464386 27.65 91.251374
0.464665 95.43 90.326493
0.464943 140.52 91.211395
0.465222 166.55 90.508331
0.4655 64.62 90.9346
0.465779 -3.1 91.162625
0.466057 61.29 90.592285
0.466336 133.25 90.862418
0.466615 176.18 90.333674
0.466893 60.21 91.316012
0.467172 151.11 90.664158
0.46745 55.48 90.816164
0.467729 242.2 91.389582
0.468007 -9.01 90.7845
0.468286 150.2 90.700542
0.468565 97.21 90.841963
0.468843 145.14 90.572105
0.469122 123.03 90.801951
0.4694 90.78 90.545277
0.469679 84.01 91.191632
0.469957 -68.03 90.473051
0.470236 203.52 91.024298
0.470515 88.02 90.31816
0.470793 89.01 90.538241
0.471072 38.15 90.461461
0.47135 -14.06 90.542906
0.471629 2.74 90.561429
0.471907 54.82 90.62812
0.472186 152.44 90.640075
0.472465 -19.89 90.472969
0.472743 1.35 90.770804
0.473022 126.63 90.543304
0.4733 168.32 90.446726
0.473579 -58.09 90.841116
0.473857 142.57 90.685907
0.474136 141.61 90.64987
0.474415 109.39 90.965904
0.474693 62.86 90.246354
0.474972 104.8 91.031388
0.47525 210.23 90.771847
0.475529 130.24 90.69773
0.475807 179.65 90.874272
0.476086 100.24 90.36482
0.476365 111.82 91.239324
0.476643 104.31 90.787678
0.476922 100.47 91.080502
0.4772 80.08 91.137406
0.477479 37.23 90.510591
0.477757 3.58 90.907912
0.478036 152.69 90.340953
0.478315 45.11 91.408167
0.478593 98.04 90.656815
0.478872 196.25 90.993792
0.47915 -11.33 91.477119
0.479429 50.34 90.048903
0.479707 115.39 91.346366
0.479986 -18.35 90.638568
0.480265 96.26 90.721771
0.480543 60.69 90.994289
0.480822 -27.45 90.818437
0.4811 -18.37 91.253581
0.481379 186.14 90.594709
0.481657 109.21 91.145115
0.481936 -24.8 91.304404
0.482215 94.16 91.17766
0.482493 49.29 91.081247
0.482772 162.92 91.049928
0.48305 29.73 91.307144
0.483329 168.3 90.935855
0.483607 13.26 90.985919
0.483886 53.08 91.610436
0.484165 -3.58 90.337791
0.484443 242.62 90.941901
0.484722 243.11 90.459186
0.485 82.2 90.864805
0.485279 35.7 90.748185
0.485557 196.94 90.975964
0.485836 -68 91.031195
0.486115 -22.07 90.39978
0.486393 133.9 90.881838
0.486672 48.12 90.490124
0.48695 131.45 90.404119
0.487229 71.79 90.716034
0.487507 61.65 90.202395
0.487786 64.88 90.783477
0.488065 -17.35 89.921675
0.488343 201.65 90.856233
0.488622 206.46 90.855781
0.4889 205.25 90.540006
0.489179 71.87 90.542514
0.489457 171.43 90.207161
0.489736 94.61 90.887788
0.490014 71.08 90.333837
0.490293 46.06 90.581129
0.490572 98.02 90.617529
0.49085 -127.8 89.769974
0.491129 40.66 90.426102
0.491407 76.61 91.392058
0.491686 51.9 93.038669
0.491964 -6.95 94.102963
0.492243 38.23 93.643104
0.492522 -48.87 95.370215
0.4928 180.65 95.412653
0.493079 193.85 95.970961
0.493357 82.66 96.444731
0.493636 106.29 95.893339
0.493914 355.25 97.07471
0.494193 266.42 96.624538
0.494472 289.71 98.242767
0.49475 100.27 97.785105
0.495029 104.58 98.067924
0.495307 68.71 99.41575
0.495586 183.61 98.489084
0.495864 162.79 99.643355
0.496143 79.78 99.706108
0.496422 255.71 100.15377
0.4967 153.7 101.01978
0.496979 116.55 101.06743
0.497257 37.27 102.18632
0.497536 44.65 101.52496
0.497814 25.72 102.33904
0.498093 255.17 101.1986
0.498372 74.01 98.764294
0.49865 146.24 98.858162
0.498929 112 97.542822
0.499207 174.96 97.671646
0.499486 149.2 96.81775
0.499764 208.6 96.701628
0.500043 149.22 97.059649
0.500322 247.04 96.723178
0.5006 22.89 96.234832
0.500879 210.75 96.063443
0.501157 51.25 96.267878
0.501436 128.39 95.443934
0.501714 -59.01 95.5145
0.501993 -88.21 95.949771
0.502272 18.25 95.137416
0.50255 -116.98 95.233814
0.502829 242.15 94.805708
0.503107 10.88 95.570988
0.503386 19.47 95.556984
0.503664 102.52 94.520077
0.503943 11.47 95.083284
0.504222 4.9 93.686294
0.5045 85.85 95.176982
0.504779 35.16 94.690564
0.505057 207.89 94.46864
0.505336 150.8 94.868193
0.505614 107.07 94.121374
0.505893 -143.21 94.687013
0.506172 126.63 94.474947
0.50645 197.05 94.453455
0.506729 105.1 95.016479
0.507007 109.88 93.763644
0.507286 46.38 94.604998
0.507564 208.29 94.320839
0.507843 233.68 94.969794
0.508122 -65.73 94.810078
0.5084 128.26 93.727968
0.508679 86.49 94.66059
0.508957 -8.46 93.856182
0.509236 89.55 94.298873
0.509514 -60.35 94.338386
0.509793 12.04 93.997812
0.510072 171.38 94.407973
0.51035 203.93 93.838832
0.510629 -53.09 94.229655
0.510907 38.52 94.292675
0.511186 34.4 93.896026
0.511464 11.91 94.711268
0.511743 -62.22 93.566481
0.512022 51.64 94.210091
0.5123 -50.27 93.539589
0.512579 -18.1 93.941776
0.512857 102.2 93.815031
0.513136 -45.18 94.063955
0.513414 154.51 94.522904
0.513693 29.9 93.636341
0.513972 83.27 94.011479
0.51425 89.96 93.680958
0.514529 255.28 94.031355
0.514807 195.22 93.990885
0.515086 117.9 94.037045
0.515364 145.95 93.698779
0.515643 171.59 93.536905
0.515922 111.21 93.599423
0.5162 46.6 93.416073
0.516479 -38.45 94.184686
0.516757 49.26 93.842839
0.517036 78.44 93.552159
0.517314 194.87 93.75281
0.517593 190.72 93.83541
0.517872 50.75 93.208505
0.51815 44.13 94.20496
0.518429 -53.72 93.265897
0.518707 50.19 94.242374
0.518986 0.81 93.670834
0.519264 20.98 93.727025
0.519543 203.82 93.768822
0.519822 108.39 93.492367
0.5201 191.35 93.188419
0.520379 -30.54 93.52711
0.520657 72.32 93.900355
0.520936 34.83 93.918027
0.521214 8.58 93.994965
0.521493 117.64 93.486524
0.521772 72.24 93.433599
0.52205 16.58 93.858858
0.522329 122.91 93.476346
0.522607 83.68 93.480195
0.522886 180.81 93.418052
0.523164 -67.38 93.360027
0.523443 -6.72 93.394723
0.523722 168.59 93.182193
0.524 83.87 93.077826
0.524279 110.43 93.203892
0.524557 115.4 93.165731
0.524836 196.5 92.936845
0.525114 78.25 92.7003
0.525393 187.13 92.879898
0.525671 98.06 93.07256
0.52595 30.53 92.595464
0.526229 33.36 92.710776
0.526507 47.95 92.913031
0.526786 162.36 92.361655
0.527064 75.95 92.778933
0.527343 166.93 92.305828
0.527621 46.07 92.410203
0.5279 118.6 92.718563
0.528179 119.89 92.619692
0.528457 110.96 92.738914
0.528736 -70.34 92.79172
0.529014 66.23 92.287813
0.529293 80.85 92.570809
0.529571 176.27 92.860552
0.52985 153.69 92.865999
0.530129 25.74 92.851538
0.530407 19.53 92.296923
0.530686 89.07 93.356312
0.530964 116.19 92.617021
0.531243 110.85 93.097701
0.531521 -126.86 92.901159
0.5318 211.55 93.052726
0.532079 133.1 93.088885
0.532357 130.05 92.690008
0.532636 121.74 92.349735
0.532914 -57.46 93.315594
0.533193 245.17 92.817622
0.533471 -91.1 92.403134
0.53375 13.87 92.497394
0.534029 15.35 93.075688
0.534307 212.62 93.242679
0.534586 -81.66 92.501278
0.534864 80.81 92.506522
0.535143 206.07 92.677712
0.535421 70.82 92.817999
0.5357 41.51 93.238322
0.535979 -93.13 92.734702
0.536257 77.25 92.853227
0.536536 116.97 93.21788
0.536814 225.64 92.730674
0.537093 168.41 93.311576
0.537371 82 92.53824
0.53765 22.13 93.144084
0.537929 99.99 92.762166
0.538207 77.07 92.299795
0.538486 -13.3 92.345323
0.538764 90.44 92.471676
0.539043 36.62 92.302615
0.539321 22.52 92.549359
0.5396 168.73 92.466903
0.539879 218.06 92.933314
0.540157 36.18 91.758673
0.540436 -63.38 92.294971
0.540714 -133.14 92.229228
0.540993 46.26 92.286235
0.541271 51.33 92.272981
0.54155 207.7 92.090736
0.541829 81.12 91.730349
0.542107 158.89 91.405573
0.542386 17.86 92.282192
0.542664 11.46 92.164948
0.542943 178.04 91.889354
0.543221 20.78 92.076641
0.5435 104.48 92.25047
0.543779 52.68 91.643279
0.544057 121.85 91.791589
0.544336 1.91 91.777166
0.544614 169.02 91.694011
0.544893 111.94 91.659621
0.545171 126.66 91.99683
0.54545 -4.59 91.785429
0.545729 12.41 92.009257
0.546007 137.59 91.901462
0.546286 198.39 91.907757
0.546564 74.86 91.331956
0.546843 115.24 91.784076
0.547121 156.21 91.374156
0.5474 175.72 91.783049
0.547679 239.79 92.325703
0.547957 -4.16 91.769992
0.548236 196.35 91.779115
0.548514 49.4 91.577109
0.548793 74.27 91.729691
0.549071 132.1 92.223346
0.54935 -94.93 92.256593
0.549629 122 92.181254
0.549907 188.99 92.05334
0.550186 138.66 92.335434
0.550464 -84.09 94.043638
0.550743 26.79 95.000525
0.551021 -23.79 96.928602
0.5513 70.45 97.168918
0.551579 78.12 97.780579
0.551857 41.6 98.584199
0.552136 96.33 98.511147
0.552414 144.2 99.335034
0.552693 23.52 99.9801
0.552971 129.3 100.73867
0.55325 231.01 100.82129
0.553529 197.32 101.16529
0.553807 -11.46 101.74867
0.554086 127.4 102.05064
0.554364 -85.28 102.45712
0.554643 25.61 103.26364
0.554921 56.68 103.26218
0.5552 -223.76 103.72444
0.555479 173.97 104.46209
0.555757 229.08 103.99141
0.556036 166.88 104.85639
0.556314 371.87 105.35533
0.556593 31.05 106.40105
0.556871 -25.41 105.91109
0.55715 90.7 104.10832
0.557429 171.01 103.23453
0.557707 49.49 102.70996
0.557986 58.89 100.81706
0.558264 60.62 100.7918
0.558543 -79.19 99.750183
0.558821 87.23 100.41048
0.5591 54.94 99.439079
0.559379 210.31 99.551447
0.559657 57.46 98.987616
0.559936 69.8 98.965061
0.560214 156.46 98.94351
0.560493 86.79 98.933492
0.560771 62.3 98.109612
0.56105 33.29 98.645916
0.561329 177.42 98.427999
0.561607 131.15 97.979092
0.561886 -5.82 97.902689
0.562164 44.97 97.994137
0.562443 5.67 98.102533
0.562721 195.07 97.630264
0.563 -19.4 97.822625
0.563278 -9.44 97.199904
0.563557 -86.21 97.375185
0.563836 164.34 97.639224
0.564114 159.48 97.80505
0.564393 4.27 96.928741
0.564671 -30 97.379246
0.56495 64.09 97.317641
0.565228 -22.25 97.644273
0.565507 106.84 97.766384
0.565786 193.61 97.105725
0.566064 141.24 97.564388
0.566343 170.06 97.381722
0.566621 -147.18 97.29294
0.5669 64.95 97.22338
0.567178 45.98 97.366001
0.567457 -38.92 97.220871
0.567736 72.28 96.637759
0.568014 112.76 96.815931
0.568293 68.03 96.647723
0.568571 84.84 96.319967
0.56885 -59.05 96.942377
0.569128 73.73 95.990674
0.569407 29.39 96.37822
0.569686 -54.53 96.171183
0.569964 133.69 95.888732
0.570243 179.86 96.277835
0.570521 146.21 96.08496
0.5708 327.1 96.255046
0.571078 116.02 96.094539
0.571357 77.56 95.501357
0.571636 9 96.003422
0.571914 -117.7 95.901198
0.572193 -35.3 95.325362
0.572471 375.2 96.009844
0.57275 65.1 95.8698
0.573028 375.55 96.175604
0.573307 53.93 95.737283
0.573586 118.83 95.575297
0.573864 127.03 95.512816
0.574143 191.79 95.971816
0.574421 122.98 95.295002
0.5747 148.18 95.839885
0.574978 193.01 94.738795
0.575257 305.79 96.354177
0.575536 26.25 95.15997
0.575814 69.6 95.302358
0.576093 57.12 95.39402
0.576371 -12.48 95.21759
0.57665 153.53 95.846277
0.576928 63.47 94.881212
0.577207 -120.77 95.339242
0.577486 146.97 95.617464
0.577764 127.31 95.690253
0.578043 155.93 95.241113
0.578321 -84.6 95.631512
0.5786 166.5 95.228561
0.578878 52.57 95.532823
0.579157 -41.35 95.37775
0.579436 136.41 95.698999
0.579714 -17.08 94.877655
0.579993 -22.82 95.126293
0.580271 12.74 95.295309
0.58055 184.3 94.957392
0.580828 130.28 94.815961
0.581107 -25.58 94.636804
0.581386 99.1 95.0408
0.581664 84.54 94.670107
0.581943 61.81 94.774523
0.582221 34.84 94.926565
0.5825 2.41 94.644673
0.582778 -30.52 94.913177
0.583057 215.52 95.021391
0.583336 131.06 95.035218
0.583614 57.83 95.150203
0.583893 105.93 95.200637
0.584171 17.14 94.672543
0.58445 121.8 94.863844
0.584728 208.53 94.992371
0.585007 77.19 94.752345
0.585286 61.39 94.75387
0.585564 62.25 95.241312
0.585843 134.48 95.42341
0.586121 118.24 94.737652
0.5864 -1.78 95.026996
0.586678 226.5 94.58645
0.586957 265.6 94.90279
0.587236 44.79 94.962073
0.587514 -33.83 94.607055
0.587793 48.84 94.772597
0.588071 -106.52 94.414103
0.58835 7.26 94.665098
0.588628 40.7 94.415742
0.588907 46.34 94.532458
0.589186 -27.32 94.698804
0.589464 6.56 94.348864
0.589743 21.47 94.385415
0.590021 224.94 94.278528
0.5903 147.96 93.60811
0.590578 100.67 94.793678
0.590857 -12.12 94.217188
0.591136 10.75 94.206098
0.591414 89.87 94.313224
0.591693 33.81 94.069898
0.591971 41.17 94.692383
0.59225 160.66 94.345769
0.592528 -108.81 94.359079
0.592807 45.86 94.13151
0.593086 223.57 94.48929
0.593364 -6.71 94.373705
0.593643 -6.32 94.187486
0.593921 -61.92 94.124776
0.5942 105.03 94.420061
0.594478 134.76 94.339745
0.594757 74.94 94.015576
0.595036 91.58 93.925841
0.595314 91.63 94.411624
0.595593 188.35 94.433482
0.595871 104.09 93.931572
0.59615 -34.95 94.34936
0.596428 24.4 94.683354
0.596707 215.74 94.616666
0.596986 209.47 93.944266
0.597264 -58.96 93.740326
0.597543 99.59 94.259077
0.597821 144.45 94.390682
0.5981 66.99 93.423758
0.598378 -94.83 94.11386
0.598657 37.39 93.731093
0.598935 311.78 93.893881
0.599214 21.96 94.117112
0.599493 -31.38 94.085084
0.599771 98.12 93.463353
0.60005 -15.89 94.026572
0.600328 188.12 94.058343
0.600607 -67.21 94.254093
0.600885 54.6 93.795159
0.601164 110.69 94.204741
0.601443 178.77 93.942155
0.601721 168.39 93.762727
0.602 172.81 93.591339
0.602278 -100.79 93.996493
0.602557 -35.51 93.576878
0.602835 -76.04 94.293506
0.603114 122.93 94.007554
0.603393 116.81 93.908457
0.603671 183.97 94.591613
0.60395 -52.83 93.804862
0.604228 262.08 94.454659
0.604507 297.62 93.919226
0.604785 -28.4 94.393989
0.605064 -62.92 94.184248
0.605343 170.9 94.079301
0.605621 155.15 93.662711
0.6059 -8 94.372279
0.606178 -61.01 94.526845
0.606457 159.93 94.24041
0.606735 -47.86 94.346413
0.607014 26.28 94.253622
0.607293 233.15 94.659589
0.607571 130.62 93.990432
0.60785 131.89 94.384363
0.608128 241.66 94.09574
0.608407 23.72 94.627451
0.608685 -79.77 94.239561
0.608964 50.63 94.326747
0.609243 87.56 94.152805
0.609521 245.63 96.804297
0.6098 38.8 97.705073
0.610078 205.61 99.290015
0.610357 135.76 99.355256
0.610635 116.48 100.16917
0.610914 320.81 100.71105
0.611193 2.72 101.21496
0.611471 143.89 102.34666
0.61175 132.95 102.97754
0.612028 99.58 103.83402
0.612307 274.3 103.58478
0.612585 84.72 104.32069
0.612864 178.26 104.78586
0.613143 12.05 105.70235
0.613421 156.91 105.66191
0.6137 -200.84 106.55936
0.613978 30.94 106.14207
0.614257 -24.66 107.12931
0.614535 162.22 107.66522
0.614814 244.03 108.32896
0.615093 -97.37 107.76645
0.615371 292.99 108.83686
0.61565 -67.77 108.76155
0.615928 -38.36 109.61223
0.616207 -31.24 106.98163
0.616485 -131.19 104.80994
0.616764 114.04 104.06475
0.617043 23.78 103.30421
0.617321 58.61 102.51647
0.6176 -39.95 101.94707
0.617878 -42.98 102.09543
0.618157 147.84 101.4277
0.618435 166.95 101.15493
0.618714 157.43 101.69244
0.618993 -54.93 101.3096
0.619271 -16.35 100.25664
0.61955 238.89 100.8897
0.619828 110.91 100.1058
0.620107 50.73 100.41988
0.620385 150.12 100.53129
0.620664 152.65 99.734229
0.620943 -76.81 100.00233
0.621221 151.84 99.379919
0.6215 -61.23 100.01751
0.621778 92.22 99.510912
0.622057 156.08 99.41891
0.622335 117.47 99.698243
0.622614 -43.94 99.388013
0.622893 -86.53 98.608178
0.623171 -8.36 99.202542
0.62345 -44.04 99.258895
0.623728 145.49 99.686056
0.624007 36.95 98.982852
0.624285 164.56 98.837557
0.624564 62.68 99.20202
0.624843 236.73 99.157475
0.625121 88.85 99.388527
0.6254 -2.49 99.399236
0.625678 183.85 98.756713
0.625957 -11.49 98.98514
0.626235 134.4 99.219722
0.626514 50.46 98.480002
0.626793 0.03 99.194159
0.627071 234.27 98.202194
0.62735 33.41 98.785778
0.627628 128.92 98.286345
0.627907 223.41 98.837896
0.628185 40.18 98.475879
0.628464 162.86 98.696583
0.628743 161.09 98.253253
0.629021 166.7 98.634112
0.6293 133.45 98.313732
0.629578 191.72 98.674305
0.629857 -31.46 98.49519
0.630135 -116.04 98.367951
0.630414 44.05 98.138258
0.630693 231.27 98.312582
0.630971 23.04 98.644843
0.63125 -37.49 98.558354
0.631528 158.34 98.405635
0.631807 70.7 98.553112
0.632085 91.27 98.447955
0.632364 134.05 97.964825
0.632643 14.5 98.384998
0.632921 37.98 97.752406
0.6332 89.53 98.605012
0.633478 -23.58 97.910402
0.633757 73.67 98.176637
0.634035 234.26 97.976468
0.634314 85.19 98.103755
0.634592 88.39 97.955866
0.634871 67.64 97.884764
0.63515 177.77 97.523268
0.635428 94.11 98.129065
0.635707 189.39 97.644455
0.635985 109.9 97.717226
0.636264 85.84 97.528751
0.636542 32.72 97.419319
0.636821 145.43 97.653626
0.6371 -61.89 97.003523
0.637378 -26.35 97.439705
0.637657 130.55 97.434531
0.637935 165.89 97.145422
0.638214 41.84 97.165906
0.638492 165.61 96.990297
0.638771 55.18 96.351013
0.63905 216.81 97.418899
0.639328 -87.39 96.705345
0.639607 78.95 97.237954
0.639885 68.3 96.365456
0.640164 88.82 96.66309
0.640442 44.01 96.757348
0.640721 139.78 96.403089
0.641 -65.99 96.302706
0.641278 147.13 96.907495
0.641557 77.52 96.493041
0.641835 81.93 96.183242
0.642114 35.17 96.754312
0.642392 -15.23 96.341691
0.642671 259.07 97.043597
0.64295 -91.49 96.322948
0.643228 -200.64 96.780857
0.643507 68.9 96.344647
0.643785 28.93 96.88861
0.644064 174.23 96.611946
0.644342 106.72 97.002241
0.644621 122.37 96.162795
0.6449 50.59 96.492009
0.645178 18.33 96.83608
0.645457 -1.77 96.259683
0.645735 184.23 96.447433
0.646014 126.52 96.722416
0.646292 34.84 96.709233
0.646571 -45.52 96.474482
0.64685 62.58 96.337817
0.647128 154.16 96.789017
0.647407 112.37 96.529953
0.647685 -17.51 96.660251
0.647964 228.87 96.853016
0.648242 91.06 96.145422
0.648521 100.04 97.238618
0.6488 148.4 96.671121
0.649078 77.22 96.380224
0.649357 80.73 96.664899
0.649635 111.09 96.552351
0.649914 14.74 96.763496
0.650192 152.66 96.759638
0.650471 260.41 96.261483
0.65075 77.83 97.232438
0.651028 -21.81 96.338415
0.651307 145.06 96.536549
0.651585 56.58 96.636451
0.651864 255.28 96.473563
0.652142 61.34 96.618895
0.652421 136.12 96.146188
0.6527 101.48 96.474636
0.652978 144.84 96.79446
0.653257 61.93 96.376285
0.653535 55.81 96.176501
0.653814 -97.52 96.302445
0.654092 -132.56 96.168315
0.654371 18.88 96.235928
0.65465 64.43 96.001317
0.654928 -97.38 96.681315
0.655207 115.16 95.911476
0.655485 133.28 96.387075
0.655764 11.69 96.728478
0.656042 208.38 96.516289
0.656321 143.91 96.718116
0.6566 -141.36 96.429499
0.656878 76.79 96.313582
0.657157 -153 96.266609
0.657435 49.82 96.209552
0.657714 97.97 96.727875
0.657992 134.46 96.533609
0.658271 -70.1 96.395784
0.65855 113.28 96.555479
0.658828 161.34 95.974891
0.659107 15.98 96.444887
0.659385 58.14 96.908034
0.659664 60.68 97.047217
0.659942 221.27 97.09032
0.660221 123.28 96.748662
0.6605 -43.38 96.657822
0.660778 156.3 97.04357
0.661057 -33 96.703738
0.661335 212.11 96.585851
0.661614 113.49 96.63977
0.661892 13.15 96.30095
0.662171 208.96 96.042935
0.66245 125.86 96.349688
0.662728 10.74 96.782403
0.663007 131.12 96.058653
0.663285 56.46 96.20015
0.663564 -19.45 96.5658
0.663842 218.66 96.320581
0.664121 113.5 95.941282
0.6644 -109.38 96.249921
0.664678 88.06 95.912169
0.664957 -75.67 96.236356
0.665235 177.17 96.15266
0.665514 -85.22 95.706884
0.665792 200.07 96.011392
0.666071 -27.12 95.931465
0.66635 49.87 95.872651
0.666628 42 95.676953
0.666907 175.2 95.852094
0.667185 148.47 95.653086
0.667464 271.99 95.999513
0.667742 43.91 95.268912
0.668021 -57.98 96.101772
0.6683 34.62 95.583249
0.668578 -104.11 98.159683
0.668857 53.65 99.92751
0.669135 9.8 100.47537
0.669414 41.54 101.37423
0.669692 125.27 102.90364
0.669971 21.33 102.47624
0.67025 38.54 103.87573
0.670528 -71.99 103.56479
0.670807 -116.68 104.90079
0.671085 49.22 105.65282
0.671364 74.9 105.92901
0.671642 24.72 106.4982
0.671921 116.79 106.98868
0.672199 -34.39 108.40026
0.672478 70.3 108.37694
0.672757 121.71 108.66432
0.673035 223.58 110.30918
0.673314 52.97 110.20557
0.673592 127.1 110.3434
0.673871 -1.72 111.32029
0.674149 17.74 111.34933
0.674428 -68.45 112.59541
0.674707 181.01 112.7795
0.674985 70.92 113.54116
0.675264 206.54 113.02654
0.675542 227.2 113.85854
0.675821 206.42 114.41699
0.676099 70.56 115.31481
0.676378 -160.35 114.6921
0.676657 -100.23 116.41361
0.676935 259.51 116.55032
0.677214 123.7 116.67123
0.677492 79.7 117.48446
0.677771 -1.04 117.79494
0.678049 0.95 119.06767
0.678328 238.18 118.68193
0.678607 99.53 119.5665
0.678885 61.92 120.51528
0.679164 404.3 120.87423
0.679442 -130.04 120.60307
0.679721 123.74 122.18016
0.679999 116.76 121.90349
0.680278 8.38 122.82075
0.680557 24.51 123.11259
0.680835 173.64 123.87922
0.681114 219.41 124.18545
0.681392 57.59 124.6008
0.681671 79.63 124.97268
0.681949 178.58 125.56509
0.682228 180.98 125.34664
0.682507 -36.32 126.89258
0.682785 228.04 126.73155
0.683064 116.97 126.60495
0.683342 152.45 127.44281
0.683621 8.4 127.38562
0.683899 255.17 127.68557
0.684178 95.75 128.16043
0.684457 -16.34 128.83321
0.684735 147.85 128.83306
0.685014 2.55 129.45394
0.685292 17.42 130.43387
0.685571 184.41 130.48065
0.685849 123.61 131.21907
0.686128 -130.83 131.4945
0.686407 -16.56 131.60155
0.686685 238.55 132.96028
0.686964 -3.71 133.48013
0.687242 101.14 132.87306
0.687521 -111.31 134.103
0.687799 49.38 135.27838
0.688078 -117.69 135.55059
0.688357 57.73 135.48471
0.688635 243.56 136.47201
0.688914 180.78 137.4835
0.689192 219.99 138.53217
0.689471 12.43 138.02068
0.689749 127.18 139.95647
0.690028 -9.92 139.02264
0.690307 110.37 140.99354
0.690585 -50.76 139.92264
0.690864 306.15 141.82891
0.691142 198.12 142.86578
0.691421 149.67 142.7889
0.691699 79.85 142.98049
0.691978 230.91 144.69377
0.692257 21.92 144.4305
0.692535 59.85 146.28307
0.692814 164.14 146.4341
0.693092 125.52 145.0764
0.693371 146.19 147.81737
0.693649 88.4 147.15336
0.693928 39.39 149.45312
0.694207 -133.95 147.70586
0.694485 45.39 150.12348
0.694764 137.97 150.87584
0.695042 197.5 151.46227
0.695321 183.37 151.34921
0.695599 -36.78 152.58505
0.695878 83.14 152.07835
0.696157 166.23 155.11092
0.696435 420.88 153.71502
0.696714 95.6 155.2353
0.696992 175.76 158.03
0.697271 78.81 157.26749
0.697549 -227.9 157.54046
0.697828 180.15 158.30475
0.698107 157.47 158.30837
0.698385 103.33 161.14808
0.698664 286.37 161.36806
0.698942 102.17 160.30285
0.699221 -182.95 162.10101
0.699499 56.36 163.88866
0.699778 17.65 164.58205
0.700057 12.73 165.69918
0.700335 -20.97 165.08413
0.700614 -356.4 170.04066
0.700892 542.89 168.43221
0.701171 -145.25 170.81752
0.701449 -25.92 171.25661
0.701728 80.8 171.30677
0.702007 -71.29 174.94592
0.702285 -103.29 174.48291
0.702564 72.15 175.53308
0.702842 218.56 176.8346
0.703121 304.52 179.83552
0.703399 365.9 180.3784
0.703678 322.09 180.74075
0.703957 -249.99 183.71485
0.704235 133.42 185.49559
0.704514 93.76 185.44519
0.704792 -22.33 185.29118
0.705071 -52.84 188.45238
0.705349 4.81 189.10419
0.705628 216.68 193.97972
0.705907 -235.96 191.23237
0.706185 504.95 194.73919
0.706464 34.4 195.85327
0.706742 -4.72 196.30709
0.707021 101.12 198.62601
0.707299 487.15 195.72365
0.707578 332.77 199.94929
0.707856 175.29 200.96148
0.708135 -212.55 200.40136
0.708414 -165.33 198.45133
0.708692 185.28 201.14077
0.708971 0.81 203.68663
0.709249 89.96 206.73635
0.709528 15.86 202.422
0.709806 53.67 209.43855
0.710085 181.14 210.55815
0.710364 127.77 214.80723
0.710642 -136.59 214.09979
0.710921 212.86 218.13654
0.711199 333.78 220.79986
0.711478 89.14 224.71884
0.711756 467.7 226.74222
0.712035 -109.57 226.3739
0.712314 160.1 230.91106
0.712592 -495.05 233.83904
0.712871 97.48 239.02306
0.713149 238.56 235.34813
0.713428 316.84 245.32526
0.713706 440.31 246.82214
0.713985 -140.58 247.96196
0.714264 -536.73 247.9491
0.714542 431.17 252.39268
0.714821 276.16 257.1616
0.715099 224.33 261.07565
0.715378 307.88 255.41904
0.715656 55.71 259.5707
0.715935 196.7 264.22108
0.716214 -217.51 266.9443
0.716492 -6.05 267.96072
0.716771 -260.26 265.61751
0.717049 20.17 273.22596
0.717328 19.41 277.36567
0.717606 -123.49 275.86008
0.717885 -310.04 276.78693
0.718164 -180.21 281.00618
0.718442 -69.04 285.59386
0.718721 -432.42 291.58358
0.718999 274.97 280.79469
0.719278 862.1 293.14407
0.719556 153.26 295.35132
0.719835 -73.64 299.48958
0.720114 203.06 296.22467
0.720392 523.33 302.40391
0.720671 -102.54 307.61038
0.720949 125.43 316.30704
0.721228 -376.45 309.19131
0.721506 -114.75 312.43434
0.721785 327.32 320.58843
0.722064 178.2 325.29957
0.722342 555.11 321.02746
0.722621 243.45 326.75455
0.722899 -221.16 337.72759
0.723178 143.08 335.74854
0.723456 295.83 346.97832
0.723735 76.72 341.64918
0.724014 -437.97 350.45098
0.724292 -506.97 354.22564
0.724571 210.67 362.77054
0.724849 399.61 363.03519
0.725128 -179.41 368.65283
0.725406 248.84 375.19666
0.725685 128.09 381.34674
0.725964 -425.73 387.89727
0.726242 -190.5 391.40728
0.726521 843.66 410.43592
0.726799 8.28 410.3587
0.727078 -199.23 417.62714
0.727356 153.46 438.04557
0.727635 63.61 444.39202
0.727914 -179.64 447.56703
0.728192 -50.55 461.13719
0.728471 -822.33 484.47777
0.728749 159.75 486.76706
0.729028 -476.91 500.78525
0.729306 -373.76 520.15556
0.729585 36.35 533.14868
0.729864 -128.64 563.7153
0.730142 -419.83 569.24353
0.730421 -525.69 577.1872
0.730699 228.12 617.25716
0.730978 1816.68 638.1477
0.731256 -2270.14 659.0985
0.731535 -658.02 692.93849
0.731814 239.91 736.94843
0.732092 499.71 795.18489
0.732371 -192.45 853.60713
0.732649 1043.74 938.62376
0.732928 -325.63 1068.2253
0.733206 -1993.66 1344.6556

