# Q [1/Ã…] I(Q) [a.u.] dI(Q) [a.u.]
0.00223785 43360 24557.758
0.00251642 31453 18898.401
0.00279499 3889 13387.082
0.00307356 35323 10337.804
0.00335213 12359 7474.8568
0.0036307 14379 6257.7183
0.00390927 23482 4848.8053
0.00418784 21827.6 4116.2042
0.00446641 15841.9 3549.1195
0.00474498 18618.3 3083.7014
0.00502355 19318.4 2603.7776
0.00530212 17254.4 2301.3135
0.00558069 17406 1975.5804
0.00585926 18742.9 1820.817
0.00613783 18969.2 1618.343
0.0064164 17339.1 1380.8815
0.00669497 20838.3 1351.6914
0.00697355 20587.33 1151.3899
0.00725212 18418.72 1106.8538
0.00753069 19903.17 986.43234
0.00780926 19185.19 922.17606
0.00808783 20327.99 896.04744
0.0083664 18584.28 817.19751
0.00864497 19742.96 777.41885
0.00892354 19245.74 725.72746
0.00920211 19302.64 688.16555
0.00948068 20405.17 683.2464
0.00975925 19517.44 622.13258
0.0100378 18414.91 616.84023
0.0103164 18964.05 580.27788
0.010595 19606.18 561.57963
0.0108735 19175.95 553.54403
0.0111521 19567.22 526.01079
0.0114307 18642.62 526.34961
0.0117092 19800.14 495.4046
0.0119878 19806.04 482.7976
0.0122664 20009.61 476.91516
0.012545 19626.16 456.10415
0.0128235 19722.5 458.53572
0.0131021 19103.97 445.59403
0.0133807 19026.84 431.77527
0.0136592 18713.6 425.18668
0.0139378 20078.68 410.16397
0.0142164 19330.67 413.89352
0.0144949 19012.15 398.44594
0.0147735 19329.12 395.55354
0.0150521 19297.7 388.68649
0.0153307 19117.05 378.4577
0.0156092 19012.69 377.90529
0.0158878 19440.72 371.46861
0.0161664 19228.24 360.88032
0.0164449 19360.54 363.35087
0.0167235 18530.11 348.01537
0.0170021 18841.48 348.06025
0.0172806 19637.48 348.15263
0.0175592 18555.27 342.15042
0.0178378 19055.05 337.93638
0.0181164 18875.67 330.39351
0.0183949 19223.2 329.0366
0.0186735 18974.4 323.69354
0.0189521 18421.31 326.43875
0.0192306 18819.12 334.53274
0.0195092 18931.89 334.09799
0.0197878 18630.6 329.54918
0.0200664 18617.09 331.6695
0.0203449 18639.56 328.71698
0.0206235 18248.76 327.28775
0.0209021 18673.06 325.26927
0.0211806 18556.15 326.45701
0.0214592 18994.23 326.0814
0.0217378 18824.86 321.46444
0.0220163 18678.77 321.45183
0.0222949 18052.75 318.86545
0.0225735 18732.83 319.38087
0.0228521 18079 317.714
0.0231306 18314.19 314.77004
0.0234092 18055.45 314.44944
0.0236878 18396.67 316.43637
0.0239663 17856.83 309.28167
0.0242449 18125.97 311.70909
0.0245235 17946.69 308.80726
0.024802 17915.81 310.50932
0.0250806 18008.73 309.02095
0.0253592 18083.17 300.21018
0.0256378 17299.48 299.00047
0.0259163 18289.81 288.62742
0.0261949 17981.48 291.38194
0.0264735 17678.52 283.69536
0.026752 17405.43 276.20028
0.0270306 18068.55 278.23954
0.0273092 17629.73 276.47645
0.0275877 17183.25 270.48375
0.0278663 17359.52 269.06075
0.0281449 17191.96 265.01241
0.0284235 17216.1 268.09449
0.028702 17477.19 261.97774
0.0289806 17225.95 258.6049
0.0292592 17056.66 258.77526
0.0295377 16951.88 255.65179
0.0298163 17268.09 254.15564
0.0300949 16557.13 251.83964
0.0303735 16956.72 250.1546
0.030652 16554.77 251.33602
0.0309306 16953.37 247.94493
0.0312092 16843.78 244.94704
0.0314877 16941.62 245.39524
0.0317663 16322.29 240.56045
0.0320449 16750.34 240.11048
0.0323234 16602.03 240.77055
0.032602 16520.98 236.91625
0.0328806 16213.6 234.57085
0.0331592 16447.77 234.89662
0.0334377 16330.6 233.36295
0.0337163 16009.69 236.94639
0.0339949 16352.37 236.12132
0.0342734 16265.12 241.08111
0.034552 16164.78 239.62313
0.0348306 15884.12 237.15295
0.0351091 16258.75 238.91855
0.0353877 16023.88 239.51325
0.0356663 16138.11 241.9859
0.0359449 15854.71 236.36677
0.0362234 15556.95 236.18158
0.036502 15829 239.62943
0.0367806 15666.03 235.88549
0.0370591 15432.69 238.94048
0.0373377 15461.41 235.363
0.0376163 15293.1 234.85928
0.0378949 15121.38 234.72831
0.0381734 15183.01 232.26532
0.038452 15133.36 236.25548
0.0387306 15014.43 231.52309
0.0390091 15027.61 234.71876
0.0392877 15040.8 233.54237
0.0395663 14956.9 229.50085
0.0398448 15147.58 232.28228
0.0401234 14572.11 228.91886
0.040402 14999.3 232.98301
0.0406806 14952.58 230.38646
0.0409591 14637.52 224.91077
0.0412377 14855.43 228.79582
0.0415163 14688.62 227.31724
0.0417948 14710.77 226.52108
0.0420734 14137.26 226.442
0.042352 14496.76 227.78105
0.0426305 14275.79 228.98615
0.0429091 14472.78 226.95341
0.0431877 14584.69 231.75308
0.0434663 13969.56 229.81994
0.0437448 14334.34 234.74862
0.0440234 14340.57 234.92145
0.044302 14047.98 231.53566
0.0445805 13649.39 233.61236
0.0448591 13957.91 233.39054
0.0451377 14102.76 237.32735
0.0454163 13942.51 235.40576
0.0456948 13253.23 235.69943
0.0459734 13414.27 235.4029
0.046252 13748.4 236.36382
0.0465305 13682 232.05052
0.0468091 13631.96 231.14216
0.0470877 13738.71 229.29027
0.0473662 12972.11 225.30141
0.0476448 13297.07 226.37623
0.0479234 12752.22 222.33823
0.048202 13175.1 221.83701
0.0484805 13191.22 220.81299
0.0487591 12867.41 217.41257
0.0490377 13200.39 219.57935
0.0493162 13181.33 216.31458
0.0495948 12904.08 217.18614
0.0498734 12563.46 213.37466
0.0501519 12360.7 213.86526
0.0504305 12305.59 214.73991
0.0507091 12609.74 214.11034
0.0509877 12670.78 213.93155
0.0512662 11855.14 212.05501
0.0515448 12419.03 211.43272
0.0518234 12288.09 213.5716
0.0521019 12376.61 212.4682
0.0523805 12166.51 211.47538
0.0526591 11830.34 212.75344
0.0529376 12155.24 210.27488
0.0532162 12181.82 210.65956
0.0534948 11708.68 208.55208
0.0537734 11813.61 209.17641
0.0540519 11682.16 208.74623
0.0543305 11704.72 207.39564
0.0546091 11862.59 206.85717
0.0548876 11560.81 202.56702
0.0551662 11311.39 203.05067
0.0554448 11527.44 204.03023
0.0557234 11148.37 200.85831
0.0560019 11491.41 202.21904
0.0562805 11318.26 198.68698
0.0565591 11185.83 199.90396
0.0568376 11226.49 200.54781
0.0571162 10691.89 198.71967
0.0573948 11005.4 199.32584
0.0576733 10738.82 196.36238
0.0579519 11010.51 197.8302
0.0582305 10687.11 196.01574
0.0585091 10866.63 195.74502
0.0587876 10779.19 196.76855
0.0590662 10569.41 195.79913
0.0593448 10491.94 195.82754
0.0596233 10239.51 193.52165
0.0599019 10654.43 193.04919
0.0601805 10449.08 193.70365
0.060459 9984.77 192.5816
0.0607376 9845.14 190.86119
0.0610162 10164.94 192.06417
0.0612948 9879.8 192.06348
0.0615733 10347 191.37069
0.0618519 9975.35 189.91737
0.0621305 9984.81 189.62822
0.062409 9879.27 189.01892
0.0626876 9799.47 190.89432
0.0629662 9827.06 188.11403
0.0632448 9605.16 187.3409
0.0635233 9533.5 187.23187
0.0638019 9702.96 186.54017
0.0640805 9457.63 186.98842
0.064359 9426.34 184.81907
0.0646376 9081.77 186.18747
0.0649162 9190.39 184.8811
0.0651947 9392.01 185.15663
0.0654733 8845.47 183.03323
0.0657519 8935.82 183.09328
0.0660305 9133.19 184.26273
0.066309 9020.42 183.03235
0.0665876 8843.55 183.4547
0.0668662 8355.97 180.66268
0.0671447 8980.25 180.9105
0.0674233 8592.15 181.34953
0.0677019 8680.02 179.65259
0.0679804 8869.93 180.96631
0.068259 8371.67 179.84293
0.0685376 8527.22 179.33836
0.0688162 8361.96 178.48496
0.0690947 8327.03 176.44062
0.0693733 8516.47 179.08908
0.0696519 8011.82 177.43232
0.0699304 8268.08 178.0842
0.070209 7927.42 176.83611
0.0704876 8125.01 174.44604
0.0707662 8133.83 176.76723
0.0710447 8142.38 175.44876
0.0713233 7493.59 175.47321
0.0716019 7960.05 175.7288
0.0718804 7523.78 172.66227
0.072159 7606.28 173.98324
0.0724376 7616.54 173.03874
0.0727161 7809.38 172.88033
0.0729947 7691.35 173.29045
0.0732733 7443.85 172.23104
0.0735519 7443.24 171.04473
0.0738304 7500.23 171.69405
0.074109 7104.37 169.96473
0.0743876 7515.23 170.65911
0.0746661 7387.61 169.50358
0.0749447 7307.29 169.11624
0.0752233 6982.43 169.97583
0.0755018 6952.38 169.09539
0.0757804 7135.15 169.11533
0.076059 6541.14 167.98633
0.0763376 7031.57 168.19969
0.0766161 6639.45 166.55574
0.0768947 6956.24 167.72665
0.0771733 6668.01 166.34591
0.0774518 6571.25 165.67517
0.0777304 6944.14 165.04452
0.078009 6452.65 170.44297
0.0782875 6524.4 170.25684
0.0785661 6512.42 170.88148
0.0788447 6393.53 171.13698
0.0791233 6381.12 172.83804
0.0794018 6109.51 174.93287
0.0796804 6057.68 171.81117
0.079959 5863.79 174.17074
0.0802375 6399.21 175.24624
0.0805161 5560.99 175.58685
0.0807947 6064.03 175.99112
0.0810733 5617.06 173.63231
0.0813518 5846.02 176.8311
0.0816304 5640.99 177.51762
0.081909 5766.14 177.09174
0.0821875 5828.6 178.28434
0.0824661 5728.82 176.96525
0.0827447 5684.85 178.13861
0.0830232 5787.94 177.61148
0.0833018 5299.04 176.97812
0.0835804 5421.04 178.36398
0.083859 5334.13 178.81233
0.0841375 5441.76 179.71953
0.0844161 5146.71 177.75558
0.0846947 5164.21 174.60879
0.0849732 5233.78 173.29575
0.0852518 5223.72 171.90099
0.0855304 4915.91 170.14987
0.0858089 5270.5 167.19926
0.0860875 5053.22 168.01412
0.0863661 4971.33 167.39757
0.0866447 5144.01 167.2243
0.0869232 4989.48 165.4754
0.0872018 4822.93 165.40496
0.0874804 4921.82 165.50094
0.0877589 4707.96 163.56858
0.0880375 4538.92 161.24194
0.0883161 4614.14 161.82712
0.0885947 4642.75 161.951
0.0888732 4432.9 161.31911
0.0891518 4362.4 159.46952
0.0894304 4822.59 159.538
0.0897089 4239.55 158.92706
0.0899875 4425.46 158.2698
0.0902661 4569.54 157.53929
0.0905446 4385.17 157.54851
0.0908232 4575.74 157.16884
0.0911018 4096.51 155.8527
0.0913804 3911.65 155.12092
0.0916589 4158.41 154.97609
0.0919375 4213.01 158.02801
0.0922161 3990.3 161.18694
0.0924946 4315.33 159.98166
0.0927732 3957.19 161.48484
0.0930518 3960.1 161.65811
0.0933303 4006.71 163.66953
0.0936089 3998.56 163.7648
0.0938875 3841.52 163.52304
0.0941661 3617.84 164.33522
0.0944446 3793.1 163.71026
0.0947232 3858.16 163.24207
0.0950018 3686.61 164.01901
0.0952803 3527.04 164.16239
0.0955589 3827.93 166.12102
0.0958375 3199.47 162.33714
0.0961161 3590.45 160.11548
0.0963946 3668.1 158.13662
0.0966732 3586.94 157.3537
0.0969518 3523.29 157.02189
0.0972303 3412.44 155.74865
0.0975089 3597.94 154.659
0.0977875 3594.47 153.91212
0.098066 3328.32 154.55169
0.0983446 3254.02 153.44956
0.0986232 2992.83 152.50982
0.0989018 3141.85 153.77119
0.0991803 3155.14 152.75033
0.0994589 3009.31 150.9884
0.0997375 3236.07 150.86255
0.100016 3095.82 149.68544
0.100295 2967.99 149.39763
0.100573 2698.53 150.32726
0.100852 3034.9 149.20499
0.10113 2818.74 148.43302
0.101409 2997.03 147.04471
0.101687 2843.47 146.7142
0.101966 2777.77 146.59762
0.102245 2850.43 146.64907
0.102523 2562.05 146.76142
0.102802 2829.34 146.48954
0.10308 2814.79 145.77388
0.103359 2612.81 145.32003
0.103637 2412.21 145.18006
0.103916 2499.22 144.99308
0.104195 2416.68 144.7177
0.104473 2448.45 143.664
0.104752 2341.11 144.19792
0.10503 2261.89 144.22069
0.105309 2411.18 143.5316
0.105587 2662.47 143.55569
0.105866 2481.68 142.24864
0.106145 2567.27 143.53984
0.106423 2363.09 142.4493
0.106702 2524.12 141.9991
0.10698 2331.63 142.9415
0.107259 2241.31 140.50579
0.107537 2438.41 142.39074
0.107816 2216.9 141.31276
0.108095 2086.87 141.43005
0.108373 2165.26 141.75246
0.108652 2189.66 139.67011
0.10893 2037 140.82399
0.109209 2046.74 140.65056
0.109487 2059.54 139.45544
0.109766 1916.79 140.03048
0.110045 2175.78 139.50858
0.110323 2227.02 138.75533
0.110602 1958.97 138.45817
0.11088 1859.84 138.99878
0.111159 2006.05 139.64788
0.111437 1816.13 137.70477
0.111716 1897.54 138.37081
0.111995 1746.95 137.55326
0.112273 1917.81 137.43016
0.112552 1545.22 137.3311
0.11283 1759.87 137.06949
0.113109 1870.31 137.17407
0.113387 1797.44 137.10696
0.113666 1756.48 137.42589
0.113945 1751.26 136.09606
0.114223 1543.18 136.47866
0.114502 1472.38 135.32595
0.11478 1721.95 136.35228
0.115059 1695.9 134.60726
0.115337 1607.65 135.09487
0.115616 1661.75 135.21141
0.115895 1482.98 134.84812
0.116173 1444.4 135.07499
0.116452 1643.84 133.80576
0.11673 1603.39 134.72792
0.117009 1573.97 134.32069
0.117287 1591.84 134.33989
0.117566 1326.49 133.86144
0.117845 1410.67 133.80818
0.118123 1284.89 133.69863
0.118402 1685.14 133.31482
0.11868 1396.96 132.43702
0.118959 1393.62 132.27426
0.119237 1314.97 132.45712
0.119516 1417.12 132.55414
0.119795 1299.59 132.3796
0.120073 1344.45 131.3161
0.120352 1442.58 132.85044
0.12063 1190.01 131.307
0.120909 1104.38 131.00743
0.121187 1188.62 131.06559
0.121466 1214.67 130.22383
0.121745 1223.59 131.53401
0.122023 1212.54 129.73102
0.122302 1101.28 129.33046
0.12258 1026.81 128.98188
0.122859 1197.71 128.65293
0.123137 1383.26 128.93906
0.123416 1060.78 127.98395
0.123695 1212.88 128.0226
0.123973 954.36 128.51381
0.124252 1270.01 127.43241
0.12453 1160.54 127.74629
0.124809 1116.14 127.07639
0.125087 844.08 128.27206
0.125366 1189.26 127.28873
0.125645 1139.08 126.28866
0.125923 1119.99 127.91475
0.126202 994.37 127.5665
0.12648 974.19 127.95561
0.126759 957.9 127.34636
0.127037 1036.27 126.29662
0.127316 651.94 126.38966
0.127594 896.79 126.93519
0.127873 755.61 127.25843
0.128152 1014.76 126.37556
0.12843 856.27 125.80846
0.128709 1000.9 126.57446
0.128987 1033.36 125.82128
0.129266 941.72 124.87734
0.129544 688.9 126.01306
0.129823 760.93 125.41434
0.130102 886.45 125.53548
0.13038 654.37 125.00684
0.130659 729.71 124.54127
0.130937 740.65 124.53297
0.131216 718.95 124.95606
0.131494 779 124.28428
0.131773 691.08 124.71892
0.132052 690.07 123.04176
0.13233 619.03 124.26072
0.132609 622.68 123.43732
0.132887 787.29 123.44782
0.133166 748.11 123.54972
0.133444 771.57 122.87442
0.133723 716.83 123.77166
0.134002 750.52 122.70854
0.13428 475.59 122.831
0.134559 547.11 123.57219
0.134837 714.88 122.28392
0.135116 426.31 122.78106
0.135394 506.14 121.60639
0.135673 639.25 122.13445
0.135952 551.65 122.43725
0.13623 640.89 121.12466
0.136509 590.16 122.32138
0.136787 487.86 121.34177
0.137066 650.01 122.72734
0.137344 551.31 124.59766
0.137623 450.93 124.82891
0.137902 638.55 127.3333
0.13818 419.58 126.45859
0.138459 679.83 126.43834
0.138737 523.14 127.52042
0.139016 409.61 127.1718
0.139294 682.28 129.52681
0.139573 134.8 128.43637
0.139852 516.15 128.86896
0.14013 466.83 130.2817
0.140409 569.97 128.8906
0.140687 351.57 130.10734
0.140966 679.72 130.67563
0.141244 361.54 129.8743
0.141523 518.22 132.15365
0.141802 407.87 130.82448
0.14208 322.37 131.83472
0.142359 266.39 131.14037
0.142637 413.33 131.93227
0.142916 402.03 132.00778
0.143194 280.18 131.66947
0.143473 358.14 132.69081
0.143752 430.03 129.76873
0.14403 330.33 128.90943
0.144309 495.04 127.01004
0.144587 284.68 125.30681
0.144866 435.43 125.67215
0.145144 128.93 125.33795
0.145423 346.35 124.37254
0.145702 124.18 124.30116
0.14598 420.16 124.73236
0.146259 321.51 123.1296
0.146537 579.1 123.68434
0.146816 291.27 123.35677
0.147094 398.08 122.55308
0.147373 236.32 121.96842
0.147652 663.12 122.23452
0.14793 143.61 121.80779
0.148209 323.21 122.10152
0.148487 405.32 121.34891
0.148766 254.96 120.89623
0.149044 259.67 121.1598
0.149323 345.41 120.45064
0.149602 347.13 120.65807
0.14988 169.1 120.69442
0.150159 398.82 119.67093
0.150437 132.88 119.61248
0.150716 417.65 120.21144
0.150994 285.25 119.61767
0.151273 324.29 119.85308
0.151552 351.29 119.40887
0.15183 322.88 119.29485
0.152109 226.91 119.48696
0.152387 404.33 119.04827
0.152666 436.14 119.55345
0.152944 183.23 119.21712
0.153223 241.91 117.83892
0.153502 201.7 118.78565
0.15378 373.25 117.94098
0.154059 164.44 118.13272
0.154337 110.18 117.61816
0.154616 205.05 116.64482
0.154894 249.02 117.80764
0.155173 63.94 117.49023
0.155452 290.6 117.38861
0.15573 360.48 117.15446
0.156009 160.55 117.2619
0.156287 359.4 116.97468
0.156566 170.23 115.94309
0.156844 162.53 117.44402
0.157123 323.1 117.29725
0.157402 264.29 116.13482
0.15768 281.74 115.6398
0.157959 514.35 115.49206
0.158237 316.28 115.71403
0.158516 234.58 115.52396
0.158794 114.22 115.56814
0.159073 197.52 114.83684
0.159352 138.92 115.2427
0.15963 129.4 114.68426
0.159909 139.94 114.92329
0.160187 348.46 114.20565
0.160466 227.7 115.21181
0.160744 76.02 114.75578
0.161023 333.64 114.17094
0.161302 267.07 113.8182
0.16158 134.48 113.64817
0.161859 37.09 114.22298
0.162137 214.71 114.22522
0.162416 -54 113.07265
0.162694 85.18 113.2189
0.162973 108.6 113.41428
0.163252 126.15 112.87859
0.16353 241.86 113.48183
0.163809 254 112.49712
0.164087 195.68 113.6114
0.164366 213.29 113.03463
0.164644 220.7 111.57614
0.164923 157.24 113.19689
0.165201 87.31 112.36512
0.16548 174.49 112.9688
0.165759 46.71 111.81267
0.166037 12.66 111.2755
0.166316 189.17 112.49592
0.166594 250.38 111.26486
0.166873 145.13 111.68621
0.167151 86.09 111.02624
0.16743 232.29 110.94172
0.167709 236.74 110.92352
0.167987 162.36 110.69838
0.168266 -11.04 110.82178
0.168544 142.16 110.56948
0.168823 113.17 110.59582
0.169101 154.55 110.9386
0.16938 237.48 109.85391
0.169659 29.03 110.87365
0.169937 47.28 110.44741
0.170216 312.9 110.02268
0.170494 280.87 110.25369
0.170773 204.79 109.80375
0.171051 77.02 110.2956
0.17133 304.54 110.10701
0.171609 -79.94 109.87214
0.171887 -26.08 110.04719
0.172166 146.54 110.32118
0.172444 83.27 109.94837
0.172723 130.18 109.83055
0.173001 269.98 109.43336
0.17328 132.57 109.60339
0.173559 94.8 109.9541
0.173837 55.38 109.45119
0.174116 146.87 109.5595
0.174394 78.45 109.47377
0.174673 29.67 109.85545
0.174951 21.24 109.72885
0.17523 185.92 109.53489
0.175509 81.41 109.41274
0.175787 141.05 109.17688
0.176066 -16.71 109.04933
0.176344 216.7 109.61767
0.176623 183.83 108.88844
0.176901 104.64 108.72702
0.17718 178.62 108.38478
0.177459 120.45 108.87258
0.177737 24.75 109.08551
0.178016 67.74 107.99873
0.178294 -34.92 108.66937
0.178573 73.1 107.58089
0.178851 21.97 108.69904
0.17913 88.61 107.42179
0.179409 163.33 108.10437
0.179687 155.24 108.08165
0.179966 -76.71 108.5779
0.180244 56.62 107.84116
0.180523 83.63 107.36334
0.180801 131.29 107.49699
0.18108 288.15 108.23951
0.181359 106.37 108.13085
0.181637 304.78 107.6791
0.181916 119.13 107.16548
0.182194 146.59 107.86688
0.182473 77.82 108.41114
0.182751 123.49 107.50568
0.18303 44.19 108.34371
0.183309 58.76 107.76577
0.183587 -10.63 108.08748
0.183866 96.52 108.40968
0.184144 146.68 108.00611
0.184423 62.81 108.35923
0.184701 24.24 108.37369
0.18498 105.09 108.49406
0.185259 76.67 108.5786
0.185537 -11.71 108.10991
0.185816 226.28 108.28683
0.186094 -115.22 108.42272
0.186373 360.96 108.1542
0.186651 70.99 107.74979
0.18693 242.56 107.79607
0.187209 33.61 107.20426
0.187487 -58.23 107.84295
0.187766 80.54 107.25147
0.188044 210.44 106.9675
0.188323 120.48 107.35827
0.188601 206.17 106.5493
0.18888 51.87 107.1318
0.189159 34.93 106.69236
0.189437 173.93 106.95476
0.189716 87.52 106.86329
0.189994 97.5 106.39546
0.190273 -32.52 106.19097
0.190551 44.31 106.2924
0.19083 64.66 105.79021
0.191109 251.82 106.36493
0.191387 130.75 105.49797
0.191666 45.3 106.13173
0.191944 157.79 105.70538
0.192223 232.16 105.03891
0.192501 33.01 105.56869
0.19278 119.07 104.63425
0.193059 106.34 105.12251
0.193337 205.81 105.08374
0.193616 43.49 105.12475
0.193894 271.46 105.14237
0.194173 67.16 104.76021
0.194451 288.65 104.58447
0.19473 207.64 105.07544
0.195009 98.7 104.44899
0.195287 60.15 104.86773
0.195566 256.16 104.09297
0.195844 -42.07 104.66388
0.196123 129.84 105.51624
0.196401 -21.69 106.12596
0.19668 216.08 107.83122
0.196959 92.28 107.06521
0.197237 240.62 108.39199
0.197516 210.8 107.96799
0.197794 245.73 108.98059
0.198073 234.61 109.80173
0.198351 100.34 108.98986
0.19863 9.92 110.15876
0.198909 49.56 109.8546
0.199187 -10.65 109.41744
0.199466 61.74 111.14362
0.199744 59.14 110.30372
0.200023 -69.18 111.11207
0.200301 209.31 111.42681
0.20058 -27.05 111.45289
0.200858 362.69 112.00753
0.201137 218.47 112.01021
0.201416 132.77 111.8606
0.201694 122.55 112.13759
0.201973 19.75 112.45565
0.202251 80.73 113.25173
0.20253 123.78 113.54079
0.202808 240.41 111.43839
0.203087 -62.86 110.83413
0.203366 165.74 110.12704
0.203644 243.91 110.15424
0.203923 105.8 108.73804
0.204201 80.05 108.43287
0.20448 163.92 108.85395
0.204758 180.44 107.63167
0.205037 138.03 107.85068
0.205316 -23.47 107.63404
0.205594 27.92 107.02386
0.205873 -106 107.38843
0.206151 129.3 105.74988
0.20643 187.19 107.35719
0.206708 -111.48 106.27431
0.206987 -1.05 105.96231
0.207266 27.25 106.41765
0.207544 69.92 105.47525
0.207823 275.37 106.69212
0.208101 205.99 105.72169
0.20838 139.18 106.26732
0.208658 204.97 106.38486
0.208937 95.2 105.14699
0.209216 95.68 106.36604
0.209494 12.44 104.94355
0.209773 98.66 104.6362
0.210051 108.23 105.56465
0.21033 99.9 104.94162
0.210608 154.77 105.96076
0.210887 103.26 104.48399
0.211166 198.63 104.45042
0.211444 115.46 104.72472
0.211723 -83.2 104.21598
0.212001 -91.24 105.07726
0.21228 243.77 103.47467
0.212558 6.6 104.99755
0.212837 189.71 103.78
0.213116 150.3 103.3654
0.213394 260.89 104.21564
0.213673 341.74 103.89153
0.213951 115.45 103.76616
0.21423 23.81 103.36328
0.214508 -13.17 103.18655
0.214787 -28.52 103.81658
0.215066 106.16 103.36603
0.215344 68.78 103.25775
0.215623 178.84 103.56949
0.215901 17.77 103.21724
0.21618 218.37 103.23259
0.216458 -32.9 103.5657
0.216737 143.94 102.73283
0.217016 1.02 102.42723
0.217294 9.06 102.3496
0.217573 11.92 102.44271
0.217851 -17.59 102.05108
0.21813 122.85 101.78777
0.218408 146.63 102.33659
0.218687 10.06 102.07471
0.218966 198.62 101.79596
0.219244 163.89 102.43921
0.219523 103.5 101.08634
0.219801 209.6 102.06577
0.22008 173.46 101.64575
0.220358 100.32 101.33147
0.220637 50.69 102.12002
0.220916 136.59 101.02334
0.221194 3.2 101.3124
0.221473 -3.84 100.79207
0.221751 24.3 101.08107
0.22203 167.06 101.1773
0.222308 110.18 100.77901
0.222587 195.77 100.80192
0.222866 91.9 100.95121
0.223144 147.35 100.90452
0.223423 6.35 101.28705
0.223701 -66.09 100.44146
0.22398 93.92 100.85157
0.224258 -22.41 101.54735
0.224537 317.05 100.86374
0.224816 151.88 100.47655
0.225094 140.84 100.49714
0.225373 168.27 100.91071
0.225651 -32.17 100.54175
0.22593 204.04 100.4934
0.226208 177.31 100.39726
0.226487 -64.27 100.28905
0.226766 -68.98 100.28531
0.227044 81.07 100.06265
0.227323 93.61 100.23289
0.227601 -45.63 99.700858
0.22788 142.87 99.83354
0.228158 73.81 99.694837
0.228437 71.12 99.30668
0.228716 136.18 99.334318
0.228994 220.18 98.903436
0.229273 199.5 99.038312
0.229551 96.29 98.844893
0.22983 9.69 99.406018
0.230108 118.27 99.263542
0.230387 131.57 99.604823
0.230666 154.53 99.177304
0.230944 85.76 98.780005
0.231223 136.04 99.345203
0.231501 154.08 99.261826
0.23178 158.57 99.693372
0.232058 5.7 100.11559
0.232337 44.71 100.06925
0.232616 144.59 100.42158
0.232894 324.68 99.956305
0.233173 142.76 100.00401
0.233451 -5.46 100.93825
0.23373 188.73 100.57104
0.234008 214.75 100.42926
0.234287 -87.14 100.43008
0.234566 173.91 100.00322
0.234844 81.37 101.10846
0.235123 66.05 100.48505
0.235401 359.22 100.9152
0.23568 97.15 99.978368
0.235958 247.8 99.888527
0.236237 -52.65 100.35594
0.236515 179.49 99.752243
0.236794 -57.66 100.38442
0.237073 97.61 99.579142
0.237351 319.78 99.598267
0.23763 261.83 99.394254
0.237908 100.66 99.423603
0.238187 227.25 99.415231
0.238465 161.05 99.024939
0.238744 30.94 99.207058
0.239023 10.1 98.641051
0.239301 215.22 98.211629
0.23958 112.45 99.349807
0.239858 29.12 98.345611
0.240137 279.01 98.843113
0.240415 65.42 98.289921
0.240694 112.22 98.626759
0.240973 73.13 98.909187
0.241251 -4.5 98.328961
0.24153 -19.68 97.70642
0.241808 89.41 97.768458
0.242087 52.41 98.15174
0.242365 86.98 98.409683
0.242644 121.2 97.683097
0.242923 252.6 97.631199
0.243201 197.45 97.812693
0.24348 83.64 97.298082
0.243758 46.24 97.100101
0.244037 -38.62 96.900631
0.244315 239.51 96.993107
0.244594 4.06 97.105393
0.244873 198 96.78304
0.245151 55.57 96.370358
0.24543 116.46 96.781452
0.245708 122.34 95.942643
0.245987 93.42 96.052538
0.246265 189.94 96.413379
0.246544 209.16 96.182077
0.246823 -190.26 96.831545
0.247101 138.24 95.476948
0.24738 18.62 96.731494
0.247658 -34.63 96.244341
0.247937 66.9 96.121329
0.248215 4.91 97.117678
0.248494 148.02 96.389119
0.248773 97.35 96.049784
0.249051 157.64 95.971086
0.24933 62.45 96.419944
0.249608 -23.51 95.930568
0.249887 -50.4 95.492777
0.250165 162.18 96.443008
0.250444 324.08 95.864957
0.250723 94.15 95.917578
0.251001 203.09 95.728166
0.25128 222.23 95.498658
0.251558 173.31 95.828292
0.251837 -17.74 95.708066
0.252115 197.8 95.190405
0.252394 102.5 95.873216
0.252673 183.32 95.159022
0.252951 18.67 95.346146
0.25323 3.08 95.367822
0.253508 125.33 94.974856
0.253787 71.94 95.83496
0.254065 297.88 95.018782
0.254344 -75.95 94.787725
0.254623 86.96 94.88308
0.254901 -181.64 95.082173
0.25518 44.44 96.538335
0.255458 106.36 96.901821
0.255737 42.44 98.020796
0.256015 -155.87 98.384668
0.256294 -91.73 99.251656
0.256573 82.5 99.30675
0.256851 109.01 99.360128
0.25713 23.25 100.40064
0.257408 116.42 100.23925
0.257687 -68.07 100.88312
0.257965 -22.21 100.78049
0.258244 47.99 101.36322
0.258523 165.81 101.72847
0.258801 82.9 101.60819
0.25908 125.11 102.13897
0.259358 -8.4 101.80109
0.259637 105.33 102.43489
0.259915 -36.86 101.81895
0.260194 -1.98 102.62461
0.260473 -1.55 102.67753
0.260751 131.34 103.0258
0.26103 64.47 103.76603
0.261308 123.16 103.23301
0.261587 201.35 103.30362
0.261865 21.97 102.09042
0.262144 73.28 100.75113
0.262423 -9.71 100.66342
0.262701 168.79 100.32834
0.26298 -68.44 99.963235
0.263258 134.84 99.253134
0.263537 -35.06 98.729551
0.263815 209 98.985097
0.264094 15.07 98.330353
0.264373 -20.65 99.355281
0.264651 7.76 97.829136
0.26493 -56.29 98.179804
0.265208 126.55 98.548131
0.265487 -32.5 97.717149
0.265765 40.96 98.430644
0.266044 81.11 97.210762
0.266323 192.31 97.592989
0.266601 -193.69 96.807353
0.26688 208.39 97.409965
0.267158 62.44 97.283254
0.267437 19.13 96.773816
0.267715 147.04 97.272125
0.267994 199.01 96.796586
0.268273 -34.4 96.123301
0.268551 -95.5 96.574794
0.26883 -15.62 95.852066
0.269108 -107.66 95.921931
0.269387 12.46 95.806218
0.269665 183.73 95.137715
0.269944 -131.97 95.806722
0.270223 -30.11 94.759499
0.270501 23.91 94.980585
0.27078 -70.13 94.920809
0.271058 154.45 94.577934
0.271337 142.79 94.729465
0.271615 9.28 94.509768
0.271894 77.47 94.362136
0.272172 -271.34 94.575144
0.272451 -10.74 94.400549
0.27273 -8.02 94.662657
0.273008 37.46 94.589113
0.273287 -37.96 94.122865
0.273565 49.27 94.814874
0.273844 153.73 94.388791
0.274122 243.84 94.35497
0.274401 112.22 94.492904
0.27468 37.37 93.828561
0.274958 124.95 94.255579
0.275237 55.15 94.09847
0.275515 3.96 94.284045
0.275794 97.03 94.150735
0.276072 9.15 93.974326
0.276351 -69.63 93.9068
0.27663 -48.86 93.460661
0.276908 -21.65 93.527772
0.277187 7.1 93.698663
0.277465 -34.44 93.518953
0.277744 76.81 93.720202
0.278022 67.18 93.136259
0.278301 146.36 93.468015
0.27858 30.29 93.857572
0.278858 -41.86 93.137964
0.279137 -99.16 93.851789
0.279415 210.09 93.552298
0.279694 71.56 93.407274
0.279972 67.6 93.498743
0.280251 171.97 93.208096
0.28053 -53.91 93.250365
0.280808 -83.72 93.204792
0.281087 -60.66 93.105572
0.281365 -99.31 93.154218
0.281644 -29.17 93.228167
0.281922 16.73 92.784617
0.282201 64.59 93.141822
0.28248 175.15 92.57889
0.282758 77.5 92.68333
0.283037 -101.78 92.514986
0.283315 79.5 92.882442
0.283594 91.15 92.695047
0.283872 -49.48 92.481296
0.284151 60.85 92.799791
0.28443 142.36 92.51782
0.284708 52.88 92.138317
0.284987 -13.29 92.145467
0.285265 163.09 92.44437
0.285544 196.23 91.977154
0.285822 142.68 92.391487
0.286101 -35.26 91.930495
0.28638 7.64 92.123718
0.286658 59.1 92.533634
0.286937 -27.35 92.264762
0.287215 -81.16 92.075868
0.287494 -113.62 92.03013
0.287772 133.08 92.460097
0.288051 141.69 91.789179
0.28833 22.63 91.981316
0.288608 186.82 91.430752
0.288887 -60.29 91.622749
0.289165 -35.66 91.818257
0.289444 -11.83 91.376332
0.289722 -20.04 91.205404
0.290001 77.12 91.480285
0.29028 40.75 90.921064
0.290558 -13.93 92.03745
0.290837 15.22 90.982754
0.291115 -53.64 91.004745
0.291394 -186.6 91.366982
0.291672 3.74 91.111796
0.291951 116.1 91.365303
0.29223 -7.72 90.747863
0.292508 117.28 91.026259
0.292787 220.62 91.298815
0.293065 -51.6 90.812763
0.293344 -64.68 91.18286
0.293622 68.45 90.474526
0.293901 20.03 90.908732
0.29418 207.47 91.201532
0.294458 119.66 90.658603
0.294737 -136.84 90.673675
0.295015 -20.46 90.882861
0.295294 -156.86 90.932152
0.295572 6.23 90.725459
0.295851 48.47 90.291501
0.29613 50.49 90.894439
0.296408 -242.27 90.559864
0.296687 -41.68 90.580541
0.296965 145.2 90.657428
0.297244 -26.83 90.064126
0.297522 78.43 90.750225
0.297801 -67.95 90.108484
0.29808 -74.54 90.483422
0.298358 -132.73 90.203106
0.298637 -24.38 90.701305
0.298915 6.52 89.815186
0.299194 -47.16 89.910148
0.299472 293.91 89.824569
0.299751 60.65 90.481063
0.30003 -14.33 90.205011
0.300308 -52.64 90.042429
0.300587 -32.59 89.55791
0.300865 204.35 90.12148
0.301144 -3.07 90.045256
0.301422 5.54 89.739053
0.301701 289.17 89.763986
0.30198 -32.79 89.990479
0.302258 -38.76 89.48521
0.302537 -89.18 89.533045
0.302815 106.69 89.601103
0.303094 82.48 89.378636
0.303372 -327.6 89.871345
0.303651 117.69 89.309278
0.30393 -10.83 89.555054
0.304208 66.62 89.440854
0.304487 -51.85 88.903653
0.304765 159.05 89.670665
0.305044 82.03 88.915473
0.305322 -11.05 88.995826
0.305601 -51.19 89.058298
0.30588 87.52 88.574169
0.306158 -107.42 88.899524
0.306437 -24.76 88.75357
0.306715 -106.76 89.401091
0.306994 -0.52 88.648948
0.307272 -42.91 89.112717
0.307551 -99.56 88.92503
0.30783 32.83 88.565856
0.308108 17.2 89.209706
0.308387 126.38 88.80362
0.308665 -54.9 88.852865
0.308944 51.49 89.006129
0.309222 79.59 88.802533
0.309501 -34.01 88.607842
0.309779 -25.23 88.954864
0.310058 46.21 89.105765
0.310337 123.9 88.864079
0.310615 -16.97 88.454249
0.310894 -101.72 88.930418
0.311172 16.77 88.797056
0.311451 -26.42 89.123919
0.311729 -121.47 88.540959
0.312008 -35.1 88.32725
0.312287 -36.68 88.557186
0.312565 -107.58 88.170789
0.312844 36.24 88.661177
0.313122 -20.54 88.650178
0.313401 -42.56 88.522239
0.313679 -13.56 88.03709
0.313958 59.58 88.148392
0.314237 124.6 88.763878
0.314515 216.94 90.22073
0.314794 126.12 90.638231
0.315072 165.22 91.17594
0.315351 -88.66 91.597398
0.315629 -23.02 92.008486
0.315908 -78.12 92.331734
0.316187 173.94 92.452835
0.316465 204.3 92.562359
0.316744 12.42 93.671253
0.317022 38.86 93.613436
0.317301 156.02 93.470408
0.317579 127.9 93.802152
0.317858 -37.39 93.807448
0.318137 -27.77 94.880887
0.318415 125.38 94.03535
0.318694 195.64 95.146897
0.318972 7.57 94.936933
0.319251 48.31 95.38196
0.319529 -22.71 95.760784
0.319808 43.42 95.3543
0.320087 -131.59 96.260884
0.320365 -47.01 95.986055
0.320644 -70.13 96.353144
0.320922 -6.32 95.394853
0.321201 -96.58 93.446849
0.321479 196.69 94.546828
0.321758 44.38 92.888972
0.322037 -171.44 92.468949
0.322315 70.37 92.935822
0.322594 214.75 92.048396
0.322872 60.54 92.96331
0.323151 -4.88 91.446997
0.323429 44.66 91.419738
0.323708 -5.2 91.583062
0.323987 16.61 91.445979
0.324265 213.21 91.541713
0.324544 21.98 91.684465
0.324822 66.21 91.177966
0.325101 7.27 90.780094
0.325379 -64.14 90.892781
0.325658 129.84 91.141367
0.325937 57.5 91.057909
0.326215 -39.64 90.489819
0.326494 -9.28 90.217862
0.326772 2.91 90.532702
0.327051 66.73 89.755745
0.327329 -44.33 90.689004
0.327608 13.07 89.700232
0.327887 -12.43 90.252457
0.328165 36.18 89.735481
0.328444 101.54 89.404207
0.328722 11.03 89.465742
0.329001 -74.58 89.373776
0.329279 206.31 89.608452
0.329558 -45.69 89.898946
0.329837 16.77 88.903013
0.330115 17.14 89.368459
0.330394 -102.34 89.133535
0.330672 25.12 88.979265
0.330951 2.4 89.359936
0.331229 -41.17 88.548634
0.331508 -46.18 89.054519
0.331787 66.86 88.413288
0.332065 9.41 88.576558
0.332344 102.21 88.620063
0.332622 138.85 88.142962
0.332901 152.58 89.58823
0.333179 104.99 87.802589
0.333458 115.42 88.028374
0.333737 -131.26 88.656781
0.334015 -86.71 88.412301
0.334294 -162.59 88.91324
0.334572 -72.95 88.284956
0.334851 -170.34 88.334352
0.335129 -40.46 88.682174
0.335408 6.15 87.886343
0.335687 90.38 88.591794
0.335965 16.85 88.570782
0.336244 59.3 88.139377
0.336522 6.34 88.525779
0.336801 48.18 87.862742
0.337079 75.66 88.22704
0.337358 -52.21 88.005038
0.337637 -16.36 88.160036
0.337915 -162.48 88.102764
0.338194 75.79 87.496533
0.338472 68.89 87.609068
0.338751 -48.56 87.819699
0.339029 116.85 87.676401
0.339308 2.28 87.842968
0.339587 -66.24 87.1979
0.339865 139.66 87.852809
0.340144 110.77 87.460629
0.340422 -112.12 87.182293
0.340701 -33.33 87.304134
0.340979 -41.67 87.419689
0.341258 60.28 87.001251
0.341537 68.23 87.233245
0.341815 147.92 87.073093
0.342094 -58.93 87.372844
0.342372 34.93 87.138565
0.342651 -25.69 86.797725
0.342929 -29.27 86.619704
0.343208 -14.98 86.788823
0.343487 81.17 86.64719
0.343765 -36.86 86.631145
0.344044 -100.54 86.654
0.344322 -44.83 86.57186
0.344601 -142.66 86.234514
0.344879 -69.17 86.417012
0.345158 -48.01 86.573418
0.345436 20.9 86.156904
0.345715 -22.65 86.77046
0.345994 -121.33 85.950752
0.346272 69.73 86.374222
0.346551 121.19 85.986596
0.346829 59.52 85.997776
0.347108 64.63 86.263986
0.347386 37.8 85.787213
0.347665 104.73 86.245555
0.347944 101.03 85.878144
0.348222 -126.18 85.498846
0.348501 -121.05 86.427433
0.348779 -156.32 85.696312
0.349058 -50.17 85.885061
0.349336 54.14 86.200534
0.349615 22.7 85.46108
0.349894 55.28 85.990514
0.350172 -37.67 85.461378
0.350451 -59.06 86.337802
0.350729 -16.97 85.544772
0.351008 -104.27 85.926102
0.351286 -11.82 86.183125
0.351565 10.59 85.273283
0.351844 47.53 86.438507
0.352122 80.6 85.816533
0.352401 -55.68 85.954064
0.352679 2.37 85.883709
0.352958 -82.01 85.619196
0.353236 -28.85 85.892481
0.353515 1.2 85.613232
0.353794 -59.02 85.806637
0.354072 26.19 85.709653
0.354351 -5.74 85.827502
0.354629 -1.07 85.682662
0.354908 -42.97 86.232118
0.355186 64.11 85.798484
0.355465 -43.8 85.938983
0.355744 28.2 85.645992
0.356022 -21.01 85.473299
0.356301 -5.97 86.190425
0.356579 -6.99 85.950405
0.356858 170.45 85.943991
0.357136 -74.2 85.992209
0.357415 53.64 85.441206
0.357694 19.72 86.061554
0.357972 -143.83 85.493199
0.358251 65.11 85.84682
0.358529 143.99 85.933049
0.358808 -14.05 85.678032
0.359086 -26.18 85.969136
0.359365 122.82 85.484359
0.359644 -75.28 85.651109
0.359922 -59.93 86.21281
0.360201 -61.73 85.540367
0.360479 138.69 85.410334
0.360758 -32.31 85.58366
0.361036 157.7 85.80102
0.361315 22.49 85.925638
0.361594 184.6 85.533797
0.361872 31.16 85.868709
0.362151 -73.86 85.520706
0.362429 73.08 85.605212
0.362708 18.2 85.356599
0.362986 60.47 85.464266
0.363265 39.25 85.707575
0.363544 -51.33 85.578288
0.363822 -82.35 85.381138
0.364101 -120.86 85.590439
0.364379 -71.56 85.308712
0.364658 106.62 85.69834
0.364936 49.23 84.984985
0.365215 -50.29 84.910179
0.365494 37.25 85.319184
0.365772 120.44 85.712556
0.366051 0.79 85.39799
0.366329 28.79 84.904951
0.366608 67.23 85.312385
0.366886 59.88 85.480262
0.367165 49.28 84.884945
0.367444 75.33 85.544999
0.367722 -2.47 85.347796
0.368001 -97.73 85.246298
0.368279 -24.64 85.471138
0.368558 19.47 85.218244
0.368836 11.32 85.783117
0.369115 16.82 85.220784
0.369394 -17.07 85.375861
0.369672 -6.51 85.622049
0.369951 34.78 85.202125
0.370229 8.28 85.598863
0.370508 117.87 85.115041
0.370786 -53.74 85.569399
0.371065 97.4 85.459513
0.371344 106.8 85.659394
0.371622 90.05 85.732907
0.371901 -23.4 85.551423
0.372179 -50.36 85.134308
0.372458 -112.69 85.61124
0.372736 34.96 85.524163
0.373015 -24.12 85.585449
0.373294 0.33 86.617077
0.373572 53.88 87.653208
0.373851 72.48 87.977651
0.374129 112.26 88.757592
0.374408 45.44 89.070646
0.374686 -56.16 89.519319
0.374965 67.45 89.327357
0.375244 37.22 90.563196
0.375522 194.36 90.184152
0.375801 -8.2 90.235943
0.376079 -3.05 90.809288
0.376358 62.68 90.772193
0.376636 63.07 91.358643
0.376915 142.46 90.711491
0.377194 9.67 91.568176
0.377472 22.58 91.811476
0.377751 94.7 91.68504
0.378029 49.69 93.107095
0.378308 60.41 92.02197
0.378586 -96.93 93.171516
0.378865 20.55 92.981818
0.379144 12.36 93.17813
0.379422 74.5 93.743765
0.379701 -51.26 93.409299
0.379979 5.04 92.667285
0.380258 24.26 91.624545
0.380536 -7.99 90.549967
0.380815 22.9 90.290809
0.381093 77.85 90.47253
0.381372 -96.58 90.51101
0.381651 -39.03 89.842079
0.381929 206.24 89.709678
0.382208 -47.03 89.07879
0.382486 10.91 89.269209
0.382765 45.06 89.245321
0.383043 45.43 89.424011
0.383322 80.7 88.991198
0.383601 116.49 89.109379
0.383879 8.06 88.800475
0.384158 28.93 88.848618
0.384436 85.17 88.782415
0.384715 -105.62 89.108254
0.384993 -59.22 88.298156
0.385272 47.1 88.189651
0.385551 8.98 87.863595
0.385829 -100.25 88.063343
0.386108 -10.36 88.489874
0.386386 -84.08 87.486763
0.386665 184.49 88.022603
0.386943 -7.06 87.38145
0.387222 -115.29 88.075874
0.387501 -80.14 87.786875
0.387779 -43.59 87.943971
0.388058 40.74 88.161092
0.388336 45.82 87.466447
0.388615 -33.79 87.278527
0.388893 219.01 87.631447
0.389172 126.49 87.343153
0.389451 105.58 88.000913
0.389729 57.65 87.254333
0.390008 192.55 87.121637
0.390286 -213.5 87.062958
0.390565 55.84 86.778007
0.390843 53.09 87.433765
0.391122 33.05 86.719132
0.391401 -50.81 87.432273
0.391679 -58.34 86.907771
0.391958 -87.44 86.638908
0.392236 43.32 87.125253
0.392515 66.94 86.688486
0.392793 128.22 86.690139
0.393072 -91.11 87.067173
0.393351 90.26 86.186215
0.393629 17.71 86.943842
0.393908 112.26 86.189049
0.394186 -90.02 86.83382
0.394465 62.5 86.669555
0.394743 97.61 86.746697
0.395022 37.65 86.727932
0.395301 11.2 86.592358
0.395579 32.65 87.132449
0.395858 71.97 86.529786
0.396136 166.84 87.324115
0.396415 -22.52 87.012836
0.396693 66.44 86.601275
0.396972 -103.37 86.980035
0.397251 35.53 86.905398
0.397529 13.57 87.323838
0.397808 114.05 87.426769
0.398086 293.1 86.534533
0.398365 20.39 87.452976
0.398643 54.66 87.096117
0.398922 131.05 87.388985
0.399201 -9.7 87.075768
0.399479 -26.89 86.847526
0.399758 44.28 87.165694
0.400036 -121.07 87.132002
0.400315 -4.66 87.247125
0.400593 52.54 87.654448
0.400872 11.61 87.205153
0.401151 -123.79 87.178131
0.401429 165.45 86.876198
0.401708 -143.98 87.089956
0.401986 -199.82 87.444445
0.402265 65.67 87.427583
0.402543 -23.52 87.57947
0.402822 171.29 87.018486
0.403101 -76.04 87.145523
0.403379 91.91 87.079373
0.403658 24.09 87.646285
0.403936 -24.37 86.495123
0.404215 -37.04 87.474728
0.404493 -108.52 87.670307
0.404772 21.76 87.341876
0.405051 -2.4 87.536256
0.405329 -56.42 87.005576
0.405608 -185.33 88.008404
0.405886 116.54 87.350347
0.406165 27.31 87.480288
0.406443 27.51 87.127605
0.406722 198.56 87.572367
0.407001 -13.81 87.498443
0.407279 26.71 87.427898
0.407558 12.96 87.332767
0.407836 91.37 87.535998
0.408115 140.79 87.512581
0.408393 -75.28 87.767375
0.408672 121.06 87.304402
0.408951 -82.57 87.458474
0.409229 112.51 87.629364
0.409508 171.28 87.234038
0.409786 13.61 87.112486
0.410065 78.51 86.895767
0.410343 156.12 87.624033
0.410622 116.27 87.309338
0.410901 72.65 87.385868
0.411179 78.26 87.463393
0.411458 62.95 86.762434
0.411736 209.32 86.70829
0.412015 6.25 87.176156
0.412293 96.54 87.5514
0.412572 157.34 87.280561
0.412851 230.66 87.210714
0.413129 -106.92 87.079391
0.413408 95.96 87.162754
0.413686 30.61 87.321602
0.413965 20.45 87.119122
0.414243 25.48 87.534915
0.414522 -81.42 86.804224
0.414801 26.26 87.177471
0.415079 16.72 86.972579
0.415358 -81.34 87.283893
0.415636 118.17 87.355583
0.415915 15.76 86.925665
0.416193 -61.48 86.864729
0.416472 190.57 87.076578
0.416751 34.77 86.360073
0.417029 -28.62 87.2534
0.417308 -27.12 86.651925
0.417586 -134.81 86.675031
0.417865 45.31 86.736105
0.418143 111.65 86.746771
0.418422 146.57 86.858999
0.4187 70.71 86.44795
0.418979 58.41 86.932492
0.419258 7.61 86.885062
0.419536 69.99 86.584812
0.419815 56.86 86.693716
0.420093 34.48 86.781567
0.420372 35.42 87.037876
0.42065 30.19 87.065447
0.420929 -52.19 86.97382
0.421208 109.39 86.767863
0.421486 -41.58 86.704812
0.421765 -39.06 87.540995
0.422043 13.22 86.810916
0.422322 -51.54 87.079693
0.4226 -72.71 87.258438
0.422879 -7.17 86.89237
0.423158 109.84 87.406569
0.423436 32.08 87.139024
0.423715 43.26 87.272613
0.423993 -45.4 87.09943
0.424272 77.08 87.082731
0.42455 -41.4 87.230948
0.424829 -91.99 87.074833
0.425108 196.59 87.579616
0.425386 169.57 87.24938
0.425665 53.64 87.299815
0.425943 -78.12 87.219131
0.426222 1.14 87.131323
0.4265 247.47 87.203631
0.426779 -7.78 87.351373
0.427058 -30.79 87.221275
0.427336 -15.32 87.263254
0.427615 36.82 87.510112
0.427893 32.23 87.167829
0.428172 49.99 87.266246
0.42845 63.67 87.679121
0.428729 149.19 87.282964
0.429008 81.45 87.565675
0.429286 67.68 87.287774
0.429565 116.86 87.527274
0.429843 98.54 87.404892
0.430122 110.55 87.031184
0.4304 5.56 87.658477
0.430679 -27.45 87.208843
0.430958 -109.92 87.566771
0.431236 -147.9 87.459691
0.431515 43.42 87.503821
0.431793 21.22 87.931741
0.432072 107.75 87.078012
0.43235 51.57 88.951317
0.432629 63.94 89.511013
0.432908 98.99 90.497605
0.433186 -25.48 91.767924
0.433465 -40.89 91.171151
0.433743 153.89 92.594672
0.434022 56.65 92.352102
0.4343 43.03 92.996347
0.434579 -49.39 93.82157
0.434858 38.09 93.315419
0.435136 123.88 94.896379
0.435415 -14.49 94.29532
0.435693 97.4 94.357103
0.435972 -82.53 96.048387
0.43625 -54.19 95.456792
0.436529 -7.69 96.068403
0.436808 54.43 96.327187
0.437086 -25.55 96.329025
0.437365 43.94 97.351122
0.437643 125.51 96.372467
0.437922 -53.78 97.697199
0.4382 25 97.54064
0.438479 155.62 98.412433
0.438758 128.04 98.38525
0.439036 -30.05 96.160568
0.439315 56.95 95.614276
0.439593 94.7 94.649597
0.439872 -66.11 94.713817
0.44015 128.61 94.325021
0.440429 93.89 93.636667
0.440708 14.24 93.120616
0.440986 49.02 93.593315
0.441265 30.82 93.419852
0.441543 -54.13 93.159081
0.441822 108.34 93.186656
0.4421 46.92 92.589746
0.442379 191.06 92.686995
0.442658 25.77 92.47142
0.442936 -33.26 92.526622
0.443215 18.73 92.48596
0.443493 43.05 92.20376
0.443772 -91.44 91.871138
0.44405 37.96 91.757211
0.444329 69.17 92.285352
0.444608 -26.15 92.295993
0.444886 26.36 91.901005
0.445165 127.36 91.971922
0.445443 88.92 91.83912
0.445722 120.08 91.580696
0.446 -123.89 91.978766
0.446279 171.94 91.76723
0.446558 -34.76 91.508653
0.446836 83.88 91.782511
0.447115 113.04 91.220062
0.447393 53.08 91.719365
0.447672 -12.36 91.002941
0.44795 22.65 91.064369
0.448229 289.95 91.240278
0.448508 -48.22 91.106544
0.448786 -44.9 91.127483
0.449065 51.71 91.342091
0.449343 85.47 90.444074
0.449622 -47.66 91.038546
0.4499 9.29 90.586907
0.450179 141.96 90.929055
0.450458 9.33 90.323564
0.450736 -34.78 90.967935
0.451015 -31.66 90.027164
0.451293 45.5 90.522458
0.451572 -91.01 90.548611
0.45185 180.11 90.418357
0.452129 141.15 90.447805
0.452408 -10.66 90.17864
0.452686 63.99 90.63118
0.452965 78.44 89.595877
0.453243 -26.75 90.665349
0.453522 121.59 90.375546
0.4538 -53.16 90.15825
0.454079 -38.21 90.150495
0.454357 124.2 89.983686
0.454636 -218.62 90.17579
0.454915 -32.35 90.610856
0.455193 -10.9 89.956575
0.455472 242.31 90.650198
0.45575 151.51 89.844078
0.456029 78.98 90.334598
0.456307 -176.13 90.423203
0.456586 53.75 89.897293
0.456865 97.1 90.096726
0.457143 207.1 89.987587
0.457422 -121.11 90.399057
0.4577 103.11 89.936807
0.457979 199.81 90.070132
0.458257 65.12 90.278518
0.458536 113.71 90.086379
0.458815 16.5 90.212049
0.459093 33.51 89.947208
0.459372 123.95 90.148214
0.45965 108.61 90.045727
0.459929 73.21 89.487051
0.460207 -58.29 90.452891
0.460486 -67.1 89.699845
0.460765 -135.25 90.2941
0.461043 -22.59 89.817857
0.461322 -46.85 89.826619
0.4616 -28.46 89.974405
0.461879 50.99 89.288647
0.462157 65.4 90.465423
0.462436 -114.12 89.806537
0.462715 8.51 89.933697
0.462993 71.48 90.330677
0.463272 105.81 89.630598
0.46355 35.32 90.170175
0.463829 202.62 89.900368
0.464107 175.49 89.803679
0.464386 -35.97 90.67172
0.464665 -24.03 89.427532
0.464943 116.74 90.427995
0.465222 -49.54 89.427192
0.4655 -7.95 90.344078
0.465779 52.99 90.364133
0.466057 132.84 89.716082
0.466336 -26.11 90.039132
0.466615 -204.57 89.476807
0.466893 39.22 90.466737
0.467172 131.36 89.798435
0.46745 21.5 89.733511
0.467729 106.04 90.174398
0.468007 -85.48 89.391072
0.468286 62.36 90.272649
0.468565 186.52 90.256127
0.468843 -21.7 89.513236
0.469122 50.89 90.24814
0.4694 76.36 89.53382
0.469679 225.18 90.159299
0.469957 -29.35 89.308881
0.470236 24.56 90.032842
0.470515 -93.86 89.665723
0.470793 -190.97 89.493235
0.471072 230.16 90.074141
0.47135 86.17 89.545328
0.471629 41.07 89.767922
0.471907 90.68 89.525284
0.472186 -43.32 89.715976
0.472465 51.08 89.927312
0.472743 29.36 89.916281
0.473022 -53.8 89.660956
0.4733 -56.54 89.487801
0.473579 211.38 89.607294
0.473857 -40.39 89.946959
0.474136 52.59 89.851048
0.474415 18.25 89.978733
0.474693 -16.29 89.330139
0.474972 32.33 90.158581
0.47525 -1.3 89.972177
0.475529 36.14 90.161974
0.475807 -25.6 90.177844
0.476086 -203.13 89.380639
0.476365 -14.56 90.783685
0.476643 34.56 89.558583
0.476922 94.85 90.391973
0.4772 5.77 90.298312
0.477479 106.88 89.865544
0.477757 -179.82 90.356603
0.478036 108.63 89.542563
0.478315 27.05 90.497347
0.478593 33.95 89.976955
0.478872 -64.12 89.948657
0.47915 -112.56 90.374975
0.479429 -4.34 89.543106
0.479707 50.53 90.382685
0.479986 -61.34 89.771747
0.480265 205.86 89.951302
0.480543 -40.32 89.978277
0.480822 127.06 90.223829
0.4811 50.13 90.566289
0.481379 22.17 89.873291
0.481657 44.69 90.269457
0.481936 -2.51 90.251063
0.482215 75.03 89.957142
0.482493 -0.59 90.208835
0.482772 121.17 89.88677
0.48305 -63.38 90.11593
0.483329 2.08 89.956142
0.483607 -22.23 90.070899
0.483886 -160.94 90.337797
0.484165 85.74 89.516841
0.484443 24.81 90.16146
0.484722 78.41 89.569189
0.485 -15.75 90.194409
0.485279 112.85 89.773353
0.485557 -47.38 89.824599
0.485836 85.25 90.16364
0.486115 56.78 89.571467
0.486393 100.47 89.464431
0.486672 95.07 89.580013
0.48695 124.6 89.614548
0.487229 94.65 89.725966
0.487507 188.72 88.987754
0.487786 43.22 89.984632
0.488065 -141.13 89.306027
0.488343 -27.07 89.893721
0.488622 90.03 89.395458
0.4889 118.16 89.557524
0.489179 -124.82 89.657895
0.489457 -22.26 89.615023
0.489736 -48.09 90.187493
0.490014 -4.3 89.483602
0.490293 -33.23 89.899388
0.490572 124.79 89.647541
0.49085 -27.42 89.109027
0.491129 -18.04 89.765111
0.491407 179.63 90.432884
0.491686 20.44 92.228189
0.491964 -32.57 93.143274
0.492243 -44.93 92.649957
0.492522 68.02 94.287559
0.4928 230.48 94.851445
0.493079 -48.08 95.02048
0.493357 37 95.382514
0.493636 -46.83 95.089062
0.493914 90.78 96.386221
0.494193 93.16 95.919276
0.494472 180.32 96.925647
0.49475 90.38 97.155424
0.495029 25.37 97.026641
0.495307 176.54 97.873293
0.495586 -40.38 97.66963
0.495864 -140.54 98.654155
0.496143 39.32 98.592557
0.496422 110.57 99.433562
0.4967 153.49 100.0391
0.496979 52.32 100.11672
0.497257 -85.41 100.61823
0.497536 250.93 100.41936
0.497814 1.81 101.07441
0.498093 11.03 99.874704
0.498372 -74.73 97.88841
0.49865 19.89 98.166059
0.498929 -22.36 96.824703
0.499207 98.46 96.540482
0.499486 182.41 95.776872
0.499764 -36.64 95.96559
0.500043 52.83 96.006403
0.500322 -7.29 95.612611
0.5006 19.53 95.328848
0.500879 53.55 94.7494
0.501157 -146.34 94.911058
0.501436 -145.68 94.625401
0.501714 -39.33 94.611288
0.501993 -59.33 94.462056
0.502272 -153.08 94.27884
0.50255 -42.74 94.429158
0.502829 193.94 93.239637
0.503107 108.57 94.612842
0.503386 -26.38 94.796242
0.503664 -5.29 93.610914
0.503943 3.54 94.383004
0.504222 90.48 93.410873
0.5045 49.4 94.380457
0.504779 89.16 93.514292
0.505057 -40.81 93.83123
0.505336 45.22 93.58391
0.505614 -57.43 93.2433
0.505893 3.8 93.723964
0.506172 101.98 93.181556
0.50645 -58.05 93.176048
0.506729 33.29 94.42557
0.507007 212.67 93.249508
0.507286 157.83 93.704517
0.507564 190.48 93.181497
0.507843 -54.46 93.578742
0.508122 155.47 94.054332
0.5084 128.61 92.761242
0.508679 68.19 93.741258
0.508957 28.92 92.81663
0.509236 95.42 93.771416
0.509514 143.13 93.60645
0.509793 20.92 93.36144
0.510072 151.52 93.801541
0.51035 -42.76 92.806161
0.510629 -36.7 93.55233
0.510907 39.82 93.264553
0.511186 29.46 93.058418
0.511464 34.6 93.314177
0.511743 44.12 92.91082
0.512022 230.89 93.312155
0.5123 -88.97 92.898659
0.512579 128.19 93.634437
0.512857 -70.72 92.939733
0.513136 89.38 92.966428
0.513414 22.29 93.411637
0.513693 119.71 92.72896
0.513972 142.04 93.005571
0.51425 109.83 93.001331
0.514529 -158.16 92.584345
0.514807 -42.09 93.000284
0.515086 163.27 93.161168
0.515364 44.15 93.310859
0.515643 -67.85 92.707871
0.515922 74.19 92.693348
0.5162 67.88 93.009834
0.516479 40.77 92.962774
0.516757 24.28 92.849879
0.517036 -79.93 92.679132
0.517314 -60.27 92.596631
0.517593 15.31 92.690124
0.517872 4.02 92.347481
0.51815 -76.53 93.283825
0.518429 -153.92 92.436113
0.518707 60.13 92.659719
0.518986 -48.58 92.425339
0.519264 61.57 92.840491
0.519543 8.27 92.943769
0.519822 83.71 92.662511
0.5201 199.23 92.583757
0.520379 80.5 92.019477
0.520657 92.08 92.708817
0.520936 -77.4 93.091678
0.521214 -24.9 92.651228
0.521493 90.11 92.451872
0.521772 129.75 92.761714
0.52205 224.9 92.842369
0.522329 81.21 92.809846
0.522607 -16.46 92.659145
0.522886 -29.76 92.697216
0.523164 78.78 92.462218
0.523443 93.64 92.746738
0.523722 -21.62 92.383325
0.524 84.82 92.70249
0.524279 -23.08 91.568231
0.524557 54.02 91.897759
0.524836 -27.13 91.974035
0.525114 -73.33 91.826206
0.525393 -178.97 92.03649
0.525671 -151.09 92.211534
0.52595 84.46 91.453275
0.526229 157.29 92.108501
0.526507 4.17 91.696787
0.526786 -34.35 91.873745
0.527064 -33.95 91.924474
0.527343 -48.2 91.377535
0.527621 202.33 91.399651
0.5279 163.48 92.053113
0.528179 -104.93 90.964756
0.528457 58.35 91.59591
0.528736 -13.15 91.668903
0.529014 -59.89 91.405088
0.529293 -25.39 92.252644
0.529571 -43.4 92.149405
0.52985 26.46 91.680978
0.530129 237.84 91.341131
0.530407 -50.49 91.525505
0.530686 9.11 91.967479
0.530964 150.64 91.928903
0.531243 133.82 92.07627
0.531521 -50.94 92.148879
0.5318 173.68 91.52875
0.532079 55.45 92.364555
0.532357 -123.54 92.172745
0.532636 -77.21 91.373089
0.532914 123.2 92.250581
0.533193 -116.94 91.923314
0.533471 66.46 92.128864
0.53375 74.87 91.410091
0.534029 30.7 92.061371
0.534307 194.78 91.953545
0.534586 78.43 91.836497
0.534864 25.41 91.768772
0.535143 -2.24 91.736882
0.535421 235.5 91.582994
0.5357 -106.01 92.08573
0.535979 102.53 91.740966
0.536257 -65.22 91.834397
0.536536 32.66 92.30512
0.536814 100.9 91.778973
0.537093 -16.54 91.857329
0.537371 109.33 91.665383
0.53765 -183.43 92.171878
0.537929 23.14 91.622612
0.538207 16 91.38844
0.538486 25.61 91.423752
0.538764 31.1 91.36765
0.539043 55.93 91.30569
0.539321 -43.18 91.487714
0.5396 333.92 91.216522
0.539879 83.7 91.832141
0.540157 -134.48 91.329137
0.540436 4.26 91.269005
0.540714 77.8 91.355132
0.540993 130.64 91.298074
0.541271 17.46 91.792698
0.54155 50.18 91.104327
0.541829 97.85 91.380316
0.542107 50.35 90.740242
0.542386 2.78 90.96042
0.542664 112.68 91.09731
0.542943 -44.79 90.663135
0.543221 -11.03 91.133504
0.5435 42.59 90.945169
0.543779 -7.97 90.870858
0.544057 -27.51 91.110537
0.544336 4.67 91.301985
0.544614 20.92 91.309771
0.544893 57.34 90.730663
0.545171 38.05 90.875958
0.54545 -24.3 90.967435
0.545729 23.92 90.719377
0.546007 47.53 91.10066
0.546286 32.45 91.238219
0.546564 13.14 90.669859
0.546843 -91.46 91.030426
0.547121 74.63 90.822641
0.5474 8.11 90.712238
0.547679 32.28 91.229089
0.547957 72.68 90.843756
0.548236 -147.92 91.131339
0.548514 58.59 90.558125
0.548793 9.18 91.144361
0.549071 115.82 91.425771
0.54935 31.37 91.218259
0.549629 36.15 91.447121
0.549907 172.36 91.01042
0.550186 103.27 91.324531
0.550464 7.42 92.707696
0.550743 88.94 94.100443
0.551021 24.41 95.630531
0.5513 3.97 96.064355
0.551579 -28.23 96.504081
0.551857 17.02 97.91538
0.552136 60.18 98.029261
0.552414 -30.57 98.240141
0.552693 45.24 98.60922
0.552971 -3.26 99.124678
0.55325 163.1 99.518811
0.553529 81.08 100.40556
0.553807 -1.15 100.95076
0.554086 184.56 100.58891
0.554364 -1.15 101.46685
0.554643 -97.06 102.31296
0.554921 -4.9 101.82317
0.5552 80.97 103.00172
0.555479 -121.67 103.1026
0.555757 29.76 103.49885
0.556036 -25.75 104.11995
0.556314 279.11 104.51343
0.556593 -92.46 105.2151
0.556871 148.85 105.11447
0.55715 106.23 102.95234
0.557429 10.64 101.88249
0.557707 56.84 101.17303
0.557986 310.03 99.975267
0.558264 -146.67 99.915101
0.558543 184.79 99.104914
0.558821 -12.4 99.157557
0.5591 20.56 99.034923
0.559379 118.99 98.745949
0.559657 78.38 98.517125
0.559936 167.69 98.22746
0.560214 4.36 98.007943
0.560493 -200.17 97.384205
0.560771 -72.26 97.377779
0.56105 141.93 97.232117
0.561329 62.48 97.633704
0.561607 -54.65 97.203842
0.561886 159.25 96.973191
0.562164 72.36 96.949356
0.562443 44.05 97.482058
0.562721 -109.71 96.357213
0.563 167.58 96.322394
0.563278 8.24 96.657606
0.563557 59.18 96.318626
0.563836 44.79 96.673528
0.564114 -29.52 96.164943
0.564393 7.33 96.455477
0.564671 20.61 96.358942
0.56495 -186.68 96.39364
0.565228 243.74 96.591506
0.565507 111.72 96.138639
0.565786 135.14 96.2718
0.566064 100.01 96.564007
0.566343 72.83 96.393118
0.566621 8.44 96.164047
0.5669 -127.7 96.091308
0.567178 97.9 95.992017
0.567457 105.73 96.325441
0.567736 -20.6 95.601193
0.568014 -189.88 95.858645
0.568293 172.69 95.890447
0.568571 127.46 95.21185
0.56885 76.02 95.850119
0.569128 5.32 94.992491
0.569407 97.52 95.409151
0.569686 180.41 95.353822
0.569964 211.13 95.036802
0.570243 -56.64 95.246997
0.570521 -25.51 95.535553
0.5708 -75.85 94.931223
0.571078 -74.36 94.905569
0.571357 -41.64 94.550583
0.571636 55.59 94.984205
0.571914 216.6 94.782525
0.572193 33.95 94.890128
0.572471 65.87 95.174497
0.57275 -137.83 94.542437
0.573028 -1.24 94.510724
0.573307 -35.02 94.637656
0.573586 -3.69 94.539199
0.573864 173.39 94.751933
0.574143 86.24 94.471341
0.574421 31.36 94.742544
0.5747 -8.79 94.900628
0.574978 191.72 93.819857
0.575257 75.12 94.711267
0.575536 -88.81 94.511043
0.575814 74.68 94.935456
0.576093 70.39 94.43725
0.576371 -79.35 94.248473
0.57665 144.75 94.999281
0.576928 49.61 94.128278
0.577207 184.13 94.519171
0.577486 -3.88 94.508678
0.577764 62.57 94.479087
0.578043 -80.41 94.278954
0.578321 2.74 94.489769
0.5786 -59.42 94.354863
0.578878 85.56 94.71737
0.579157 139.13 94.284961
0.579436 -40.34 94.500747
0.579714 -66.68 93.678798
0.579993 23.35 94.215484
0.580271 -26.37 94.320479
0.58055 -12.61 94.048679
0.580828 32.77 94.128964
0.581107 129.59 94.192883
0.581386 65.03 94.363118
0.581664 0.31 93.677104
0.581943 -5.6 93.928747
0.582221 116 94.134097
0.5825 117.44 94.063099
0.582778 65.73 94.222427
0.583057 48.63 93.754283
0.583336 28.68 93.834689
0.583614 34.55 94.372022
0.583893 72.98 94.137393
0.584171 -27.21 93.837264
0.58445 -74.02 93.898271
0.584728 -6.01 94.063113
0.585007 14.23 93.734077
0.585286 -64.19 93.79156
0.585564 -2.48 93.833975
0.585843 -57.85 93.894836
0.586121 -54.51 93.486122
0.5864 -138.47 94.369966
0.586678 -6.27 93.97867
0.586957 136.79 93.734233
0.587236 3.62 93.638931
0.587514 -59.38 93.569689
0.587793 -96.38 93.682713
0.588071 45.26 94.052738
0.58835 56.58 93.875728
0.588628 103.29 93.759404
0.588907 -41.28 93.078775
0.589186 -104.76 93.955222
0.589464 -94.12 93.472222
0.589743 -52.75 93.372805
0.590021 -61.87 93.630045
0.5903 -47.64 92.933312
0.590578 -108.34 93.760594
0.590857 -107.28 93.121921
0.591136 -7.54 93.235645
0.591414 62.18 93.404747
0.591693 -149.04 93.187056
0.591971 -143.68 93.763302
0.59225 -139.66 93.231678
0.592528 8.03 93.112445
0.592807 71.68 92.960313
0.593086 -18.83 93.475789
0.593364 -109.86 93.525919
0.593643 -245.83 93.083952
0.593921 75.91 93.193695
0.5942 80.9 93.46524
0.594478 -184 93.158973
0.594757 154.2 92.999571
0.595036 153.42 93.536246
0.595314 1.61 93.056096
0.595593 -2.31 93.47091
0.595871 85.05 93.367571
0.59615 -222.27 93.333175
0.596428 -6.85 93.500074
0.596707 102.9 93.571287
0.596986 143.85 93.088462
0.597264 79.3 92.890531
0.597543 119.4 93.116371
0.597821 230.79 93.153363
0.5981 42.83 93.033131
0.598378 86.48 93.129514
0.598657 174.72 92.898583
0.598935 24.85 93.313908
0.599214 41.67 93.177979
0.599493 25.74 93.155044
0.599771 32.52 92.860446
0.60005 -22.34 93.424607
0.600328 59.95 93.079675
0.600607 -29.31 93.450656
0.600885 209.63 92.982549
0.601164 -51.88 93.197732
0.601443 10.2 93.138691
0.601721 158.82 93.121008
0.602 -29.51 92.941209
0.602278 24.95 93.314934
0.602557 121.3 93.256465
0.602835 96.05 93.477735
0.603114 58.91 93.286237
0.603393 -4.89 93.196516
0.603671 101.07 93.459738
0.60395 96.96 92.795962
0.604228 1.27 93.496007
0.604507 83.91 93.27927
0.604785 27.01 93.530238
0.605064 -19.01 93.330289
0.605343 10.23 93.313257
0.605621 177.76 93.313367
0.6059 24.9 93.222448
0.606178 48.34 93.487859
0.606457 225.76 93.485945
0.606735 165.37 93.486404
0.607014 -72.1 93.522353
0.607293 43.31 93.724025
0.607571 -48.26 93.290465
0.60785 -3.08 93.422722
0.608128 -19.76 93.552977
0.608407 98.28 93.357924
0.608685 -88.1 93.528561
0.608964 117.59 93.24916
0.609243 143.4 93.955333
0.609521 154 95.732127
0.6098 116.15 96.282132
0.610078 -58.22 97.902733
0.610357 -53.18 97.959531
0.610635 80.32 99.511373
0.610914 20.33 100.55779
0.611193 63.76 100.8172
0.611471 23.39 101.22416
0.61175 -84.11 101.74064
0.612028 -41.19 102.2853
0.612307 18.5 102.72043
0.612585 76.02 103.13035
0.612864 31.79 103.5642
0.613143 -158.95 104.1625
0.613421 78.08 104.64012
0.6137 -51.38 105.58782
0.613978 41.47 105.42964
0.614257 -85.33 105.5654
0.614535 15.97 105.9553
0.614814 52.44 106.85363
0.615093 -87.33 106.91202
0.615371 -23.07 107.45469
0.61565 127.03 107.85694
0.615928 31.77 108.30803
0.616207 -96.71 105.83568
0.616485 -141.51 104.44437
0.616764 -20.56 103.18905
0.617043 113.06 102.35401
0.617321 182 101.61238
0.6176 112.41 101.1067
0.617878 132.54 100.99838
0.618157 -111.17 100.86386
0.618435 95.22 100.54535
0.618714 74.18 100.34761
0.618993 8.77 100.42621
0.619271 44.24 99.701501
0.61955 -90.08 100.11181
0.619828 85.01 99.454416
0.620107 -132.11 99.181294
0.620385 182.95 99.774677
0.620664 133.54 98.573263
0.620943 -22.72 98.868382
0.621221 -5.96 98.940533
0.6215 85.1 98.300872
0.621778 -140.71 98.934481
0.622057 -46.82 97.954838
0.622335 23.58 98.48791
0.622614 2.09 98.272779
0.622893 -8.63 97.748312
0.623171 40.25 98.561115
0.62345 8.33 98.091902
0.623728 135.92 98.615522
0.624007 -156.65 98.251634
0.624285 41.9 98.289569
0.624564 -47.55 98.03552
0.624843 42.5 98.149351
0.625121 -6.97 98.075475
0.6254 168 98.226031
0.625678 100.92 97.694057
0.625957 -108.5 97.980698
0.626235 231.87 98.105939
0.626514 -121.93 97.407975
0.626793 -39.43 97.721408
0.627071 122.64 97.609885
0.62735 142.16 97.814681
0.627628 275.4 97.628307
0.627907 180.22 97.435866
0.628185 165.56 97.791378
0.628464 -66.83 97.741294
0.628743 -68.68 97.268762
0.629021 182.73 97.528821
0.6293 89.35 96.933659
0.629578 -135.16 97.65023
0.629857 -149.63 97.601523
0.630135 33.77 97.897128
0.630414 85.31 96.95552
0.630693 148.59 97.534928
0.630971 300.25 97.129643
0.63125 -77.05 96.870171
0.631528 21.9 97.112432
0.631807 -68.88 97.673763
0.632085 -19.52 97.215567
0.632364 94.02 97.081792
0.632643 -104.15 97.219418
0.632921 -93.34 96.984103
0.6332 62.69 97.456222
0.633478 125.27 97.271671
0.633757 53.37 97.025014
0.634035 -90.84 97.284655
0.634314 109.83 97.414661
0.634592 -178.94 96.957641
0.634871 15.7 97.001168
0.63515 67.21 96.918664
0.635428 -6.12 97.270831
0.635707 -51 96.808446
0.635985 65.91 97.000315
0.636264 8.28 96.333798
0.636542 -67.48 96.231052
0.636821 123.51 96.4339
0.6371 71.41 96.208048
0.637378 18.98 96.49368
0.637657 25.11 96.277207
0.637935 -202.66 96.10851
0.638214 150.85 96.37391
0.638492 13.83 95.968051
0.638771 -46.88 96.16322
0.63905 28.72 96.173533
0.639328 159.23 95.691655
0.639607 -101.1 96.167619
0.639885 -3.34 95.51969
0.640164 -35.28 95.6782
0.640442 66.93 95.84919
0.640721 -18.89 95.478963
0.641 -56.65 95.224413
0.641278 59.11 95.752929
0.641557 -4.5 95.208642
0.641835 44.16 95.156671
0.642114 227.78 95.35334
0.642392 -7.25 95.419756
0.642671 -22.23 95.90014
0.64295 -0.35 95.857708
0.643228 -5.44 95.767035
0.643507 103.45 95.499101
0.643785 -57.95 95.606219
0.644064 -83.65 95.571801
0.644342 -4.14 95.782614
0.644621 -35.89 95.539649
0.6449 28.86 95.609894
0.645178 25.63 95.431986
0.645457 127.4 95.816625
0.645735 -68.27 95.764805
0.646014 61.68 95.502176
0.646292 169.34 96.12304
0.646571 -9.41 95.42943
0.64685 70.05 95.676301
0.647128 -128.47 96.079216
0.647407 153.21 95.706234
0.647685 3.05 95.713457
0.647964 74.2 95.805429
0.648242 176.72 95.563014
0.648521 128.34 96.128645
0.6488 51.8 95.670552
0.649078 -78.32 95.104398
0.649357 10.28 96.007882
0.649635 -5.38 95.785492
0.649914 40.59 95.863989
0.650192 39.68 95.490443
0.650471 5.09 95.517144
0.65075 13.79 95.912504
0.651028 -4.42 95.430835
0.651307 193.67 95.600301
0.651585 66.87 95.999287
0.651864 124.47 95.251869
0.652142 -71.79 95.447244
0.652421 -36.96 94.986625
0.6527 103.2 95.662223
0.652978 -77.13 95.646939
0.653257 -16.29 95.524062
0.653535 124.24 95.394252
0.653814 122.76 95.463119
0.654092 32.79 95.474085
0.654371 -143.12 95.151712
0.65465 -50.18 94.870679
0.654928 -24.75 95.322137
0.655207 -57.71 95.141545
0.655485 47.73 95.569149
0.655764 127.29 95.985114
0.656042 -76.14 95.23548
0.656321 -95.61 95.217017
0.6566 -92.77 95.247739
0.656878 -166.99 95.476804
0.657157 -103.7 95.577644
0.657435 -2.98 95.075396
0.657714 216.61 95.564559
0.657992 207.65 95.63699
0.658271 37.83 95.650183
0.65855 164.47 95.673141
0.658828 105.87 95.533554
0.659107 -6.11 95.987382
0.659385 215.11 96.098732
0.659664 61 96.173141
0.659942 128 95.055293
0.660221 -10.57 95.682652
0.6605 22.4 95.677727
0.660778 -111.22 96.619196
0.661057 -12.04 95.739176
0.661335 68.77 95.6439
0.661614 -85.63 95.758024
0.661892 50.26 95.616611
0.662171 10.51 95.411944
0.66245 -46 94.875993
0.662728 65.22 96.239891
0.663007 -99.24 95.734481
0.663285 -103.25 95.376735
0.663564 139.79 95.32862
0.663842 63.34 95.380904
0.664121 134.22 95.544667
0.6644 26.77 95.329248
0.664678 175.03 95.024175
0.664957 96.3 95.216712
0.665235 -41.87 95.165246
0.665514 -46.78 94.834656
0.665792 88.56 95.228073
0.666071 -0.85 95.155975
0.66635 83.1 95.048903
0.666628 127.42 94.962545
0.666907 21.89 95.038241
0.667185 -59.14 94.550025
0.667464 190.99 94.909513
0.667742 105.95 94.713033
0.668021 -20.37 95.141224
0.6683 145.95 94.891265
0.668578 13.5 97.377569
0.668857 87.31 98.756079
0.669135 70.95 99.996445
0.669414 -177.91 100.29558
0.669692 -83.16 101.8725
0.669971 -85.11 101.82795
0.67025 99.21 102.51834
0.670528 0.7 102.54543
0.670807 48.89 104.13972
0.671085 36.87 104.74892
0.671364 -44.22 105.1529
0.671642 91.22 105.64356
0.671921 -12.59 106.33769
0.672199 169.56 107.40375
0.672478 208.45 107.10622
0.672757 21.93 107.77678
0.673035 -71.74 108.79574
0.673314 -85.3 109.19594
0.673592 -41.85 109.2114
0.673871 -59.1 110.31648
0.674149 128.77 109.72917
0.674428 120.53 111.14692
0.674707 -39.43 111.70261
0.674985 86.35 112.47201
0.675264 307.51 112.62221
0.675542 -7.31 112.62459
0.675821 89.43 113.42423
0.676099 172.99 114.05486
0.676378 -93.4 114.12584
0.676657 6.85 115.47878
0.676935 -39.22 115.66386
0.677214 179.37 115.50643
0.677492 41.38 116.38077
0.677771 9.46 116.26597
0.678049 222.47 118.24073
0.678328 237.12 117.80176
0.678607 115.31 119.01321
0.678885 -257.96 119.03274
0.679164 2.39 119.3726
0.679442 167.59 119.41983
0.679721 109.95 120.78744
0.679999 -76.81 121.21402
0.680278 -127.91 121.69909
0.680557 85.34 122.14618
0.680835 123.95 123.38538
0.681114 53.04 123.52243
0.681392 -10.68 123.1282
0.681671 -294.64 123.4105
0.681949 -62.43 124.35369
0.682228 -10.57 123.89573
0.682507 -68.66 125.74619
0.682785 -66.68 125.10993
0.683064 -58.31 125.79063
0.683342 -74.45 125.96987
0.683621 48.83 127.07856
0.683899 186.82 126.45617
0.684178 -157.99 127.13391
0.684457 149.3 127.48038
0.684735 85.25 127.99886
0.685014 -32.7 127.91654
0.685292 60.9 129.07817
0.685571 164.43 128.7899
0.685849 41.8 129.8379
0.686128 -78.32 130.07345
0.686407 115.8 130.46661
0.686685 -73.36 132.28889
0.686964 266.17 132.61293
0.687242 38.54 132.21847
0.687521 60.35 132.91384
0.687799 199.05 133.75501
0.688078 132.13 134.34308
0.688357 -89.23 134.67572
0.688635 -121.35 135.68558
0.688914 66.12 136.72258
0.689192 -47.62 137.80467
0.689471 187.6 136.39867
0.689749 4.78 137.89036
0.690028 -42.9 137.93473
0.690307 0.67 139.17191
0.690585 -19.04 139.52439
0.690864 101.26 140.12155
0.691142 249.41 142.26829
0.691421 53.71 141.01469
0.691699 -32.88 142.2713
0.691978 -174.04 143.841
0.692257 -68.09 143.64281
0.692535 -108.18 143.75146
0.692814 23.63 145.14318
0.693092 208.99 143.60245
0.693371 -44.43 145.86977
0.693649 -5.28 145.32474
0.693928 -74.85 148.43795
0.694207 -157.87 147.14879
0.694485 -153 147.87135
0.694764 61.04 147.68167
0.695042 75.71 149.85554
0.695321 32.08 149.93756
0.695599 310 151.81581
0.695878 -99.69 151.52954
0.696157 -66.13 153.6133
0.696435 310.02 153.06781
0.696714 25 152.24978
0.696992 -15.22 156.61336
0.697271 70.59 155.55528
0.697549 -45.15 156.33114
0.697828 350.89 156.5604
0.698107 167.35 157.34841
0.698385 -14.05 159.59304
0.698664 12.34 160.42571
0.698942 108.86 158.51787
0.699221 114.15 161.73072
0.699499 -14.02 161.88886
0.699778 -204.05 164.36362
0.700057 -70.47 163.39398
0.700335 150.68 164.89616
0.700614 -50.15 167.81498
0.700892 -83.14 167.53905
0.701171 -210.21 168.20516
0.701449 127.23 168.45827
0.701728 29.46 169.70576
0.702007 -99.2 174.00713
0.702285 172.44 173.34797
0.702564 183.9 173.29873
0.702842 -380.72 175.98875
0.703121 -179.2 177.71913
0.703399 -139.86 178.53527
0.703678 19.13 178.37627
0.703957 209.81 180.4926
0.704235 74.58 183.83276
0.704514 -2.44 183.97768
0.704792 143.26 183.05737
0.705071 145.64 187.8429
0.705349 259.73 188.72484
0.705628 148.79 191.62271
0.705907 -139.15 189.09726
0.706185 93.88 191.94595
0.706464 228.77 194.12638
0.706742 -68.81 193.99221
0.707021 48.55 193.64906
0.707299 -215.62 195.34302
0.707578 -16.82 196.82089
0.707856 45.33 199.32799
0.708135 176.99 195.17494
0.708414 204.87 196.71991
0.708692 257.22 199.95039
0.708971 -5.74 201.52697
0.709249 -187.96 202.91997
0.709528 -139.89 201.11644
0.709806 425.08 205.75495
0.710085 -73.09 207.972
0.710364 370.82 211.9742
0.710642 660.89 210.50989
0.710921 345.82 213.82614
0.711199 75.6 216.96534
0.711478 379.94 223.76708
0.711756 -76.15 222.70519
0.712035 -366.26 222.78026
0.712314 297.4 227.86414
0.712592 -120.63 232.44314
0.712871 162 236.6838
0.713149 346.86 233.82189
0.713428 -197.86 241.58235
0.713706 -224 246.72866
0.713985 -134.87 247.45818
0.714264 122.82 248.89906
0.714542 -361.94 250.19547
0.714821 82.67 253.5612
0.715099 85.34 256.25293
0.715378 239.02 254.66785
0.715656 299.47 257.90877
0.715935 57.87 260.5075
0.716214 620.11 266.46095
0.716492 280.09 265.96059
0.716771 223.73 263.3395
0.717049 132.09 269.65786
0.717328 -339.83 273.26533
0.717606 248.04 271.08694
0.717885 -61.72 270.33831
0.718164 188.12 276.72453
0.718442 -274.49 283.47461
0.718721 46.01 285.192
0.718999 523.12 278.17314
0.719278 7.51 288.7767
0.719556 170.09 292.3264
0.719835 -402.36 300.16907
0.720114 -351.51 294.91809
0.720392 534.72 296.83415
0.720671 -470.57 304.37032
0.720949 648.92 314.95493
0.721228 416.77 303.90272
0.721506 149.24 308.03808
0.721785 344.05 319.28209
0.722064 -65.92 324.81502
0.722342 145.68 320.35046
0.722621 -30.19 325.28748
0.722899 -137.47 337.10046
0.723178 -108.59 331.42366
0.723456 -342.98 340.56621
0.723735 332.93 335.90934
0.724014 -387.76 348.89156
0.724292 784 349.28029
0.724571 -51.97 353.01487
0.724849 119.61 356.81117
0.725128 308.49 362.05628
0.725406 250.47 375.55876
0.725685 -713.11 376.96897
0.725964 -564.22 393.50685
0.726242 336.33 388.00246
0.726521 13.6 404.15584
0.726799 903.5 410.50764
0.727078 915.23 418.02242
0.727356 237.55 437.86004
0.727635 -184.93 432.75539
0.727914 520.57 440.81596
0.728192 296.91 454.9368
0.728471 403.4 476.33362
0.728749 28.93 479.99107
0.729028 -412.9 493.43171
0.729306 1456.19 513.42994
0.729585 247.73 538.38181
0.729864 565.51 548.25071
0.730142 -382.89 579.27858
0.730421 3.83 568.91317
0.730699 -130.3 603.62822
0.730978 -394.84 638.58913
0.731256 924.75 654.31807
0.731535 -145.18 696.23669
0.731814 382.34 753.86808
0.732092 -244.23 768.248
0.732371 105.82 847.57733
0.732649 1866.89 941.74135
0.732928 -91.74 1078.4348
0.733206 -1706.65 1357.1493

