# Q [1/Ã…] I(Q) [a.u.] dI(Q) [a.u.]
0.00223785 77920 24303.128
0.00251642 52366 18735.75
0.00279499 25023 13288.109
0.00307356 31124 10266.408
0.00335213 11724 7405.1404
0.0036307 27935 6204.7426
0.00390927 22572.4 4811.0186
0.00418784 18352.3 4078.0983
0.00446641 18641.8 3524.8421
0.00474498 17479 3047.3069
0.00502355 21021.8 2567.6529
0.00530212 18214.5 2266.9614
0.00558069 16692.3 1951.2944
0.00585926 17175.6 1799.9903
0.00613783 13334.2 1595.9498
0.0064164 17209.4 1348.2215
0.00669497 15798.4 1335.5277
0.00697355 15373.43 1133.1868
0.00725212 14807.47 1083.9152
0.00753069 15118.39 965.14522
0.00780926 15437.2 903.10708
0.00808783 15976.29 877.1848
0.0083664 15518.28 794.16542
0.00864497 16665.78 758.03805
0.00892354 17005.67 709.00461
0.00920211 15298.53 668.30689
0.00948068 16439.16 664.20683
0.00975925 15756.83 602.51439
0.0100378 16002.73 590.95342
0.0103164 15094.04 560.3733
0.010595 16749.88 541.61602
0.0108735 15638.81 535.63532
0.0111521 15372.86 507.74396
0.0114307 15619.16 505.36234
0.0117092 15916.43 476.09007
0.0119878 16476.09 464.79257
0.0122664 15676.8 461.84396
0.012545 15962.09 438.45946
0.0128235 15257.63 440.74737
0.0131021 15847.74 424.76862
0.0133807 16653.79 413.47364
0.0136592 15496.4 406.70791
0.0139378 15037.41 391.06523
0.0142164 16184.58 396.23944
0.0144949 15018.2 383.27844
0.0147735 16358.79 378.5274
0.0150521 14964.93 368.21246
0.0153307 16324.97 362.83819
0.0156092 15461.68 359.20163
0.0158878 15970.49 353.93814
0.0161664 15834.45 347.6147
0.0164449 15480.74 348.18826
0.0167235 15600.51 334.23307
0.0170021 15838.41 334.69993
0.0172806 15236.98 331.80061
0.0175592 15670.7 326.81971
0.0178378 15316.97 323.10168
0.0181164 15199.15 314.45586
0.0183949 15065.09 312.57126
0.0186735 15785.04 310.36073
0.0189521 15379.99 312.54065
0.0192306 14886.96 313.99393
0.0195092 15248.24 316.95803
0.0197878 14869.01 314.0765
0.0200664 15401.11 315.71518
0.0203449 15389.51 313.23814
0.0206235 14695.23 311.65829
0.0209021 15124 309.41305
0.0211806 14799.72 307.88528
0.0214592 14834.76 308.11065
0.0217378 14669.97 304.61723
0.0220163 14945.91 304.02481
0.0222949 14763.33 303.87854
0.0225735 14743.17 301.7646
0.0228521 15000.6 302.04105
0.0231306 14657.61 298.73508
0.0234092 15235.28 299.71767
0.0236878 14184.91 301.79661
0.0239663 14862.26 296.96386
0.0242449 14668.29 297.38115
0.0245235 14559.07 293.0341
0.024802 15201.85 293.23341
0.0250806 14186.86 294.12162
0.0253592 15055.54 288.12943
0.0256378 14819.43 284.74436
0.0259163 14190.34 275.20902
0.0261949 14425.12 276.11639
0.0264735 14150.37 270.37783
0.026752 14572.26 262.12166
0.0270306 14563.19 266.17651
0.0273092 13704.28 261.82296
0.0275877 14389.5 257.9709
0.0278663 14668.86 259.09872
0.0281449 14452.68 252.6012
0.0284235 14008.08 253.6143
0.028702 14216.52 250.5387
0.0289806 13536.33 245.26257
0.0292592 13994.41 246.76715
0.0295377 13667.95 243.56842
0.0298163 13964.59 241.87903
0.0300949 13334.58 240.08717
0.0303735 13473.58 236.67356
0.030652 13939.91 239.45593
0.0309306 13649.43 236.4928
0.0312092 13739.49 232.7595
0.0314877 13457.76 233.42803
0.0317663 13599.11 230.65644
0.0320449 13532.82 229.18025
0.0323234 13058.08 228.5364
0.032602 13338.84 224.88332
0.0328806 12812.09 223.77211
0.0331592 13268.09 224.19637
0.0334377 13143.9 223.89494
0.0337163 13191.18 225.83097
0.0339949 13119.16 224.27701
0.0342734 13503.91 229.87314
0.034552 13091.89 229.28253
0.0348306 13228.14 227.24406
0.0351091 12873.77 227.4343
0.0353877 13016.76 228.03539
0.0356663 12840.67 230.12343
0.0359449 12682.75 224.57358
0.0362234 12876.38 225.48591
0.036502 12292.91 226.41089
0.0367806 12549.62 225.00928
0.0370591 12375.66 229.12637
0.0373377 13064.12 224.94594
0.0376163 12487.03 223.63871
0.0378949 12298.29 225.01528
0.0381734 12661.26 222.64848
0.038452 12514.48 224.86379
0.0387306 11968.44 220.20382
0.0390091 12494.08 224.82454
0.0392877 12356.5 222.95071
0.0395663 12353.56 217.96504
0.0398448 11926.61 221.01711
0.0401234 12505.83 220.04678
0.040402 11877.76 221.5097
0.0406806 11725.23 220.55944
0.0409591 11758.49 215.18744
0.0412377 12247.12 219.1294
0.0415163 11534.66 217.20151
0.0417948 11991.27 216.51371
0.0420734 11667.55 215.17135
0.042352 11991.47 216.665
0.0426305 11510.41 219.85444
0.0429091 11615.72 216.38017
0.0431877 11470.11 219.94741
0.0434663 11699.8 219.58485
0.0437448 11492.81 223.73484
0.0440234 11431.17 224.11975
0.044302 11418.01 221.92532
0.0445805 11620.68 223.95018
0.0448591 11192.97 222.45571
0.0451377 10688.56 227.4557
0.0454163 11019.12 225.61243
0.0456948 11171.83 225.38319
0.0459734 10769.85 225.59102
0.046252 11439.58 226.56422
0.0465305 11161.45 222.79331
0.0468091 11197.17 221.81111
0.0470877 11033.44 219.66208
0.0473662 10701.32 216.25512
0.0476448 10592.54 216.84655
0.0479234 10658.87 212.95203
0.048202 10755.46 211.64199
0.0484805 10641.01 212.41039
0.0487591 10387.33 208.15664
0.0490377 10490.87 210.38904
0.0493162 10451.1 205.75301
0.0495948 10098.47 207.40655
0.0498734 10576.06 205.24178
0.0501519 10456.36 204.69605
0.0504305 10099.98 207.22675
0.0507091 10401.35 205.31503
0.0509877 10470.48 205.43921
0.0512662 10034.66 205.25472
0.0515448 10089.59 203.74548
0.0518234 9768.48 204.35902
0.0521019 10232.85 203.25139
0.0523805 9711.11 204.52535
0.0526591 9798.01 203.49158
0.0529376 9955.93 202.67573
0.0532162 9575.78 203.82919
0.0534948 9528.82 199.95733
0.0537734 9310.75 199.44694
0.0540519 9446.53 199.36867
0.0543305 9341.09 198.99279
0.0546091 9502.27 198.30563
0.0548876 9889.18 195.5218
0.0551662 9202.25 196.07615
0.0554448 9251.19 195.44031
0.0557234 9287.12 193.91123
0.0560019 9130.71 195.96163
0.0562805 9340.85 192.02493
0.0565591 9123.3 192.20726
0.0568376 8730.01 192.21276
0.0571162 8979.22 190.42106
0.0573948 8757.34 191.54448
0.0576733 8645.78 189.10033
0.0579519 8868.85 188.57087
0.0582305 8800.98 189.9301
0.0585091 8627.03 187.68655
0.0587876 8482.04 188.29326
0.0590662 8510.4 189.23272
0.0593448 8400.67 188.01289
0.0596233 8528.11 186.31048
0.0599019 8278.42 185.30324
0.0601805 8473.82 187.97072
0.060459 8353.07 185.73421
0.0607376 8229.29 183.57804
0.0610162 8264.33 185.21754
0.0612948 8019.22 185.52422
0.0615733 8286.86 184.73869
0.0618519 8124 182.94114
0.0621305 7593 182.92938
0.062409 8055.03 182.05813
0.0626876 8139.5 183.6165
0.0629662 8035.37 181.42983
0.0632448 7854.24 181.28354
0.0635233 7705.98 180.67211
0.0638019 7681.91 179.66601
0.0640805 8045.76 180.47074
0.064359 7416.95 178.75089
0.0646376 7716.79 180.32869
0.0649162 7543.67 179.29443
0.0651947 7463 178.79315
0.0654733 7209.25 177.53236
0.0657519 7304.48 176.11266
0.0660305 7849.87 178.30625
0.066309 7024.7 176.43161
0.0665876 7240.96 177.10827
0.0668662 7338.62 175.22623
0.0671447 6910.69 174.1427
0.0674233 7400.14 176.54924
0.0677019 7171.39 173.57605
0.0679804 7051.9 175.07064
0.068259 6919.33 174.36837
0.0685376 7019.88 173.46334
0.0688162 6606.51 173.47262
0.0690947 7023.19 171.65557
0.0693733 6976.93 173.29893
0.0696519 6531.73 171.43369
0.0699304 6362.99 171.54132
0.070209 6448.58 171.21468
0.0704876 6648.11 169.98943
0.0707662 6635.13 171.09515
0.0710447 6386.28 170.06169
0.0713233 6347.81 169.86801
0.0716019 6323.93 168.73709
0.0718804 6218.93 167.36502
0.072159 5935.85 168.29702
0.0724376 6335.52 168.0707
0.0727161 6149.64 166.8484
0.0729947 6119.11 166.87118
0.0732733 6448.3 167.84808
0.0735519 6166.17 166.56983
0.0738304 5602.65 166.29967
0.074109 6238.98 165.66574
0.0743876 5859.8 165.72285
0.0746661 5908.05 164.95368
0.0749447 5846.33 163.71306
0.0752233 5575.83 164.51709
0.0755018 5229.4 164.12084
0.0757804 5516.02 164.68478
0.076059 5724.26 163.91762
0.0763376 5800.48 163.89985
0.0766161 5536.04 162.12868
0.0768947 5548.11 161.9538
0.0771733 5532.7 162.24109
0.0774518 5369.74 161.0986
0.0777304 5238.2 160.01573
0.078009 5231.73 165.35196
0.0782875 5150.19 164.89369
0.0785661 5394.27 165.62807
0.0788447 5058.18 167.07268
0.0791233 5171.54 168.45405
0.0794018 4821.96 170.84765
0.0796804 5173.84 167.60521
0.079959 4630.59 170.13829
0.0802375 5027.85 169.4914
0.0805161 4635.86 170.63132
0.0807947 4895.02 171.22452
0.0810733 4880.4 169.79656
0.0813518 5058.77 172.26123
0.0816304 4555.43 172.7221
0.081909 4522.46 172.90173
0.0821875 4637.2 173.09534
0.0824661 4674.29 171.71685
0.0827447 4492.72 173.96481
0.0830232 4701.4 173.73147
0.0833018 4486.24 172.28139
0.0835804 4579.98 173.89702
0.083859 4490.39 174.13956
0.0841375 4077.7 174.55119
0.0844161 3850.76 172.6058
0.0846947 4447.79 170.76899
0.0849732 4405.9 169.21577
0.0852518 4076.25 167.69912
0.0855304 4421.37 166.06762
0.0858089 4139.52 163.99799
0.0860875 4251.07 163.55683
0.0863661 4006.88 163.91276
0.0866447 4279.66 162.03187
0.0869232 4154.8 161.18396
0.0872018 3864.43 161.08956
0.0874804 3725.28 161.03521
0.0877589 4012.64 159.71437
0.0880375 3819.11 158.88806
0.0883161 3968.35 158.15055
0.0885947 3697.34 158.02232
0.0888732 3800.65 157.50215
0.0891518 3721.38 156.48632
0.0894304 3562.46 156.09622
0.0897089 3574.42 155.41021
0.0899875 3500.78 154.71849
0.0902661 3494.56 154.32295
0.0905446 3642.15 153.5414
0.0908232 3518.04 153.8055
0.0911018 3523.38 153.78889
0.0913804 3347.28 151.68601
0.0916589 3529.4 151.29289
0.0919375 3354.75 153.9286
0.0922161 3287.12 157.40244
0.0924946 3230.45 156.93607
0.0927732 3192.56 158.15013
0.0930518 3189.26 158.41506
0.0933303 3391.76 160.15672
0.0936089 3372.53 160.28732
0.0938875 3262.37 159.48851
0.0941661 3107.65 161.03198
0.0944446 3159.94 160.20393
0.0947232 2761.69 158.75844
0.0950018 2976.59 160.26274
0.0952803 2802.02 160.8071
0.0955589 2912.58 162.34851
0.0958375 2919.59 158.84521
0.0961161 3051.73 156.49288
0.0963946 3034.48 155.13098
0.0966732 3086.91 154.53692
0.0969518 2428.12 154.37072
0.0972303 2594.78 152.58474
0.0975089 2687.1 152.45875
0.0977875 2774.37 151.92297
0.098066 2773.34 151.57998
0.0983446 2491.44 150.71535
0.0986232 2727.44 150.22529
0.0989018 2984.64 151.55231
0.0991803 2778.5 150.24484
0.0994589 2392.74 149.41452
0.0997375 2798.15 148.4061
0.100016 2657.55 147.32456
0.100295 2294.55 146.86862
0.100573 2459.36 146.52478
0.100852 2355.1 145.99413
0.10113 2339.7 145.03512
0.101409 2318.94 144.45383
0.101687 2085.12 144.13028
0.101966 2398.27 144.63842
0.102245 2084.75 144.37616
0.102523 2197.4 143.66346
0.102802 2395.14 143.65173
0.10308 2237.83 142.61086
0.103359 2285.68 143.10974
0.103637 2315.85 143.24946
0.103916 1874.2 142.12174
0.104195 2081.38 142.56874
0.104473 2208.03 142.02031
0.104752 2289.15 141.83153
0.10503 2023.98 142.11187
0.105309 2074.58 140.87699
0.105587 1926.03 141.21177
0.105866 2172.41 139.8417
0.106145 1970.73 141.1273
0.106423 1811.79 140.1334
0.106702 2020.37 139.53527
0.10698 1969.21 141.06798
0.107259 1759.44 138.83422
0.107537 1478.7 139.66847
0.107816 1806.26 139.17321
0.108095 1665.04 138.67461
0.108373 1878.23 138.6267
0.108652 1893.6 138.14522
0.10893 1492.7 138.69228
0.109209 1965.89 137.94009
0.109487 1684.77 137.00955
0.109766 1821.08 138.49369
0.110045 1380.77 137.32095
0.110323 1717.96 137.0806
0.110602 1506.62 136.05867
0.11088 1669.25 137.01744
0.111159 1590.09 136.9348
0.111437 1416.84 135.56084
0.111716 1501.38 136.20501
0.111995 1677.4 136.22655
0.112273 1470.65 135.2065
0.112552 1399.71 136.0448
0.11283 1440.53 135.31092
0.113109 1614.65 135.25567
0.113387 1572.67 134.78398
0.113666 1535.68 135.12503
0.113945 1259.07 134.44039
0.114223 1272.53 134.44778
0.114502 1513.91 134.17163
0.11478 1514.77 134.66972
0.115059 1281.73 133.63631
0.115337 1457.39 133.67708
0.115616 1312.13 134.08929
0.115895 1358.64 133.53692
0.116173 940.61 133.6361
0.116452 1219 132.62278
0.11673 1405.23 133.02944
0.117009 1057.24 132.5503
0.117287 1237.14 131.85449
0.117566 1061.51 131.98526
0.117845 1286.68 131.84142
0.118123 1108.36 132.27023
0.118402 1245.15 131.25321
0.11868 1104.62 129.84275
0.118959 1045.47 130.59396
0.119237 1013.84 130.44729
0.119516 1076.06 130.9582
0.119795 1500.17 130.307
0.120073 830.9 129.96313
0.120352 931.77 130.23396
0.12063 917.37 130.05305
0.120909 1164.83 129.1537
0.121187 1088.3 128.99775
0.121466 990.17 129.14149
0.121745 848.88 129.39988
0.122023 1043.16 128.4781
0.122302 994.82 128.25061
0.12258 1020.11 127.45337
0.122859 1000.06 127.39913
0.123137 900.98 127.57597
0.123416 713.7 126.44769
0.123695 911.06 127.14423
0.123973 684.91 127.11398
0.124252 744.3 125.75294
0.12453 574.08 126.49052
0.124809 940.58 126.27432
0.125087 755.55 126.43129
0.125366 714.42 125.5309
0.125645 1101.56 125.41942
0.125923 707.79 125.85783
0.126202 686.46 125.67464
0.12648 708.22 126.33611
0.126759 623.52 126.162
0.127037 761.65 125.26858
0.127316 718.78 124.50298
0.127594 481.32 125.64613
0.127873 623.11 125.18109
0.128152 674.75 125.42475
0.12843 511.74 124.52122
0.128709 721.67 124.86628
0.128987 762.85 124.65294
0.129266 622.38 124.40349
0.129544 639.87 124.11538
0.129823 676.38 124.62502
0.130102 610.81 124.28929
0.13038 651.87 123.98397
0.130659 648.28 123.48048
0.130937 668.85 123.14104
0.131216 554.64 123.37922
0.131494 560.89 122.39762
0.131773 432.3 123.30872
0.132052 758.6 121.68992
0.13233 380.87 123.42083
0.132609 611.51 122.77087
0.132887 579.18 122.77282
0.133166 641.36 122.63543
0.133444 434.15 122.13643
0.133723 759.31 122.0007
0.134002 660.66 121.62188
0.13428 607.39 121.46393
0.134559 299.8 122.21279
0.134837 305.27 121.50005
0.135116 457.02 121.53351
0.135394 554.2 120.36267
0.135673 501.68 120.70413
0.135952 587.72 121.40351
0.13623 386.6 119.75852
0.136509 706.3 121.4142
0.136787 137.69 120.40322
0.137066 334.77 121.6957
0.137344 467.52 124.2686
0.137623 406.79 123.57682
0.137902 375.94 125.51737
0.13818 448.16 125.68493
0.138459 449.74 125.59549
0.138737 518.22 127.19946
0.139016 319.51 125.90516
0.139294 382.82 128.36299
0.139573 267.18 128.23103
0.139852 466.07 127.83276
0.14013 317.67 129.00908
0.140409 451.1 128.22658
0.140687 330.59 129.07049
0.140966 182.64 129.14367
0.141244 283.45 129.13857
0.141523 487.58 130.35441
0.141802 369.24 129.58787
0.14208 294.26 130.67619
0.142359 169.81 130.1734
0.142637 53.74 130.74398
0.142916 400.23 131.97546
0.143194 407.2 131.04458
0.143473 238.87 131.49834
0.143752 328.31 128.90686
0.14403 325.35 128.00928
0.144309 241.19 125.87976
0.144587 342.57 125.65139
0.144866 202.04 125.21495
0.145144 202.24 124.11035
0.145423 346.94 123.87142
0.145702 179.21 123.14171
0.14598 289.73 123.48106
0.146259 169.78 121.96764
0.146537 565.57 122.94094
0.146816 392.72 121.86013
0.147094 374.14 122.11737
0.147373 141.23 121.37163
0.147652 230.43 120.57404
0.14793 189.46 120.17429
0.148209 209.18 120.23241
0.148487 242.81 120.53729
0.148766 179.14 119.53034
0.149044 371.38 119.94055
0.149323 194.21 119.34665
0.149602 239.7 119.44207
0.14988 153.55 119.26044
0.150159 209.55 118.94873
0.150437 248.14 119.36637
0.150716 277.21 119.3095
0.150994 12.34 118.92766
0.151273 72.51 119.40892
0.151552 208.41 118.73625
0.15183 -15.8 118.06491
0.152109 -81.57 118.76754
0.152387 311.35 117.52065
0.152666 273.38 118.77545
0.152944 237.8 117.71516
0.153223 373.55 117.56275
0.153502 139.85 117.50171
0.15378 243.08 117.13239
0.154059 262.85 117.10968
0.154337 271.56 116.7041
0.154616 230.49 116.45275
0.154894 98.94 116.76081
0.155173 64.67 115.78258
0.155452 323.52 116.31986
0.15573 243.05 116.02765
0.156009 102.6 115.91621
0.156287 266.07 115.51214
0.156566 173.22 114.33514
0.156844 135.54 116.05825
0.157123 308.36 116.1007
0.157402 189.07 114.9388
0.15768 100.78 114.84952
0.157959 386.07 114.82754
0.158237 53.45 114.60995
0.158516 -20.33 114.80356
0.158794 169.8 114.71668
0.159073 115.82 113.80656
0.159352 119.96 114.74539
0.15963 42.95 114.29804
0.159909 74.85 114.71119
0.160187 155.3 113.29756
0.160466 147.84 113.98832
0.160744 120.84 114.06289
0.161023 215 113.20222
0.161302 52.29 113.91105
0.16158 59.29 113.0071
0.161859 160.85 113.14808
0.162137 143.34 113.3373
0.162416 360.16 112.41954
0.162694 49.52 112.77004
0.162973 160.33 112.69935
0.163252 43.09 112.33355
0.16353 240.53 112.69202
0.163809 5.64 112.01485
0.164087 289.05 112.50819
0.164366 149.27 112.41839
0.164644 170.87 111.38335
0.164923 248.86 111.86564
0.165201 8.18 110.94407
0.16548 -103.08 111.97206
0.165759 199.1 110.72018
0.166037 117.66 110.86989
0.166316 108.23 111.47398
0.166594 158.05 110.92029
0.166873 -136.13 111.36768
0.167151 157.22 110.35384
0.16743 330.33 110.35803
0.167709 238.61 110.31604
0.167987 -19.14 110.01341
0.168266 87.5 109.62533
0.168544 8.42 109.68008
0.168823 -17.27 109.96248
0.169101 170.05 109.95079
0.16938 42.91 109.0766
0.169659 148.39 109.25731
0.169937 -61.53 109.38918
0.170216 54.72 109.3766
0.170494 71.5 109.13719
0.170773 299.93 109.31567
0.171051 58.28 109.61692
0.17133 105.93 109.07784
0.171609 225.83 109.1845
0.171887 70.87 109.36131
0.172166 38.9 109.45147
0.172444 135.42 109.33553
0.172723 -113.53 109.34359
0.173001 277.85 108.55711
0.17328 13.68 108.8524
0.173559 15.29 109.45542
0.173837 149.04 108.66365
0.174116 30.62 108.89477
0.174394 100.39 108.86873
0.174673 71.44 109.16977
0.174951 104.81 108.41622
0.17523 148.36 108.13368
0.175509 115 108.2735
0.175787 248.67 108.47151
0.176066 81.47 108.13009
0.176344 112.92 108.71356
0.176623 -17.82 107.79469
0.176901 -16.9 107.7636
0.17718 168.79 107.43154
0.177459 53.93 108.30614
0.177737 186.95 107.60576
0.178016 -3.52 107.3324
0.178294 -31.28 107.87161
0.178573 90.1 107.02065
0.178851 -44.43 108.30048
0.17913 160.78 106.51599
0.179409 15.94 107.13312
0.179687 72.14 107.53251
0.179966 -81.81 107.03276
0.180244 101.45 106.883
0.180523 -63.41 106.67347
0.180801 94.22 106.87524
0.18108 135.1 106.93149
0.181359 59.74 107.14717
0.181637 134.35 106.56994
0.181916 -87.23 105.95358
0.182194 102.84 106.33467
0.182473 -29.5 107.17084
0.182751 -9.98 106.34351
0.18303 59.39 107.15339
0.183309 44.36 107.22306
0.183587 106.9 107.74244
0.183866 151.39 107.44319
0.184144 -108.99 106.87621
0.184423 -88.02 107.56448
0.184701 16.15 107.78294
0.18498 13.24 107.81588
0.185259 -14.85 107.89057
0.185537 -180.53 106.83782
0.185816 -61.07 107.22713
0.186094 128.39 107.36521
0.186373 -22.16 107.29114
0.186651 182.22 107.08105
0.18693 51.08 107.49487
0.187209 113.54 106.22474
0.187487 -75.71 106.8165
0.187766 -30.37 106.40606
0.188044 -66.42 106.13606
0.188323 19.59 106.57566
0.188601 31.54 105.96926
0.18888 -92.01 106.12751
0.189159 -73.58 105.48784
0.189437 2.2 105.82024
0.189716 38.09 105.79542
0.189994 133.81 105.23318
0.190273 69.81 105.25389
0.190551 162.29 105.30739
0.19083 -47.87 105.15575
0.191109 118.47 105.5981
0.191387 -80.7 104.19564
0.191666 22.54 105.45747
0.191944 22.08 104.84473
0.192223 -48.61 104.51828
0.192501 100.5 105.48884
0.19278 182.19 104.31341
0.193059 171.02 104.83309
0.193337 217.79 104.28145
0.193616 130.42 104.22578
0.193894 129.53 104.59386
0.194173 -36.14 103.77287
0.194451 178.38 104.16771
0.19473 154.72 104.28396
0.195009 56.35 103.66959
0.195287 22.92 104.12156
0.195566 -85.1 103.24745
0.195844 111.07 103.99902
0.196123 48.19 104.65298
0.196401 129.63 105.77386
0.19668 128.17 107.39532
0.196959 122.76 106.69173
0.197237 100.18 108.25974
0.197516 -91.7 107.62685
0.197794 78.79 108.39919
0.198073 112.59 109.09768
0.198351 -30.27 108.16946
0.19863 -17.28 109.34828
0.198909 -74.81 108.85087
0.199187 169.43 109.39252
0.199466 -169.36 110.02388
0.199744 -72.11 109.46522
0.200023 -75.24 110.25267
0.200301 40.54 110.67917
0.20058 169.86 111.01974
0.200858 -93.47 111.42976
0.201137 81.68 111.07667
0.201416 6.39 111.66136
0.201694 8.14 111.94216
0.201973 188.33 111.57681
0.202251 -62.75 112.49889
0.20253 -58.92 113.048
0.202808 150.58 110.29158
0.203087 276.94 109.89097
0.203366 -88.87 109.3243
0.203644 29.76 109.0687
0.203923 43.5 108.17527
0.204201 245.68 107.61743
0.20448 -72.89 108.17197
0.204758 -42.29 107.0061
0.205037 10.91 106.44007
0.205316 80.27 107.27598
0.205594 148.74 106.52573
0.205873 102.75 106.85931
0.206151 56.83 105.36321
0.20643 101.19 106.44752
0.206708 92.66 105.72883
0.206987 -16.74 105.11374
0.207266 151.23 105.4855
0.207544 16.35 104.88376
0.207823 -30.54 105.85624
0.208101 58.05 105.19391
0.20838 138.32 105.20627
0.208658 92.73 105.41272
0.208937 128.08 104.71322
0.209216 -6.96 105.59875
0.209494 19.79 104.35149
0.209773 182.71 103.91385
0.210051 67.77 104.93314
0.21033 247.98 104.30212
0.210608 72.64 104.75053
0.210887 146.98 103.83349
0.211166 148.64 104.12392
0.211444 3.41 104.12332
0.211723 116.9 103.74598
0.212001 -153.82 104.16521
0.21228 140.35 103.0494
0.212558 54.52 103.88984
0.212837 -68.49 102.74696
0.213116 -27.83 102.67768
0.213394 135.44 103.12263
0.213673 185.6 102.99185
0.213951 -58.89 103.38052
0.21423 -22.96 102.68858
0.214508 28.47 102.9985
0.214787 18.34 103.06415
0.215066 123.35 102.86049
0.215344 7.02 102.15727
0.215623 186.81 102.6716
0.215901 130.87 102.49309
0.21618 65.07 101.99293
0.216458 87.8 101.9833
0.216737 192.3 101.86787
0.217016 209.57 101.78607
0.217294 117.23 102.20118
0.217573 27.51 101.65933
0.217851 -62.8 100.98731
0.21813 91.05 100.99439
0.218408 -40.07 101.56167
0.218687 65.56 101.27389
0.218966 124.01 100.92218
0.219244 324.64 101.02072
0.219523 8.49 101.36286
0.219801 -49.84 101.46669
0.22008 -89.65 100.5958
0.220358 202.59 100.62632
0.220637 27.89 101.48625
0.220916 125.02 100.48167
0.221194 -19.4 100.26915
0.221473 166.7 100.46877
0.221751 37.64 100.36882
0.22203 -48.85 100.34314
0.222308 -74.06 99.671235
0.222587 -65.18 100.41641
0.222866 -54.03 100.3802
0.223144 178.46 100.01753
0.223423 191.47 100.02243
0.223701 106.42 99.821138
0.22398 208.81 100.17202
0.224258 31.47 100.50435
0.224537 104.16 99.501737
0.224816 178.5 99.986767
0.225094 -44.81 99.216304
0.225373 -102.33 100.02363
0.225651 -48.44 100.03498
0.22593 -2.78 99.736881
0.226208 194.07 99.611784
0.226487 53.48 99.325822
0.226766 1.66 99.208438
0.227044 -0.46 99.17446
0.227323 75.01 99.397285
0.227601 6.96 98.71088
0.22788 -87.92 99.181607
0.228158 32.46 98.95776
0.228437 280.21 98.545108
0.228716 286.17 98.836215
0.228994 49.86 98.792521
0.229273 164.22 98.238585
0.229551 321.89 98.020082
0.22983 76.27 98.354521
0.230108 25.53 98.250049
0.230387 88.65 98.761541
0.230666 88.4 98.804611
0.230944 9.17 98.073983
0.231223 11.72 98.459176
0.231501 15.97 98.798779
0.23178 4.65 98.966217
0.232058 45.13 99.420526
0.232337 26.34 99.171909
0.232616 67.51 99.194599
0.232894 -79.57 99.295659
0.233173 15.03 99.704891
0.233451 107.7 100.17564
0.23373 25.49 99.665547
0.234008 91.99 99.74287
0.234287 -105.7 100.1503
0.234566 -166.79 99.739524
0.234844 -20.81 100.22397
0.235123 -32 99.498223
0.235401 -95.82 100.26118
0.23568 -4.87 99.062009
0.235958 145.73 99.406281
0.236237 -30.66 99.354873
0.236515 -67.56 98.925694
0.236794 122.16 99.371335
0.237073 224.75 98.928425
0.237351 26.74 98.944467
0.23763 56.79 98.66569
0.237908 213.73 98.864991
0.238187 -27.61 98.396228
0.238465 127.48 98.148895
0.238744 -14.2 98.445286
0.239023 -79.19 98.667382
0.239301 175.84 98.103341
0.23958 5.98 98.693909
0.239858 85.83 97.596137
0.240137 76.75 98.319349
0.240415 -23.65 97.615286
0.240694 98.95 97.151842
0.240973 168.98 97.739831
0.241251 127.26 97.103546
0.24153 176.95 97.243344
0.241808 127.08 97.191892
0.242087 239.04 96.962484
0.242365 -116.37 97.545499
0.242644 9.84 96.765134
0.242923 64.08 96.723652
0.243201 209.25 96.70869
0.24348 59.37 96.41961
0.243758 -4.84 96.220668
0.244037 63.67 95.950107
0.244315 136.64 96.228028
0.244594 -92.46 96.196282
0.244873 61.07 96.025381
0.245151 61.41 95.316187
0.24543 55.7 95.986873
0.245708 168.51 95.376089
0.245987 9.32 95.274631
0.246265 -199.19 95.713968
0.246544 27.87 95.473769
0.246823 90.43 95.985948
0.247101 63.91 95.204879
0.24738 56.08 95.694221
0.247658 -50.34 95.535057
0.247937 -28.64 95.321877
0.248215 -27.04 95.82075
0.248494 -3.01 95.395849
0.248773 -1.06 95.070111
0.249051 184.05 95.04512
0.24933 120.69 95.629098
0.249608 117.9 95.49748
0.249887 -127.66 95.073366
0.250165 92.15 95.32037
0.250444 -8.34 95.252504
0.250723 78.28 95.229213
0.251001 184.1 95.16135
0.25128 110.81 94.896468
0.251558 123.58 95.408745
0.251837 114.2 94.342496
0.252115 -13.77 95.023817
0.252394 18.63 94.925489
0.252673 35.21 94.715328
0.252951 -117.2 94.795053
0.25323 85.47 94.849395
0.253508 2.12 94.343657
0.253787 -15.02 94.55564
0.254065 -81.84 94.259646
0.254344 -59.59 94.12494
0.254623 -3.46 94.543029
0.254901 102.52 94.523039
0.25518 22.22 95.804457
0.255458 -45.64 96.365345
0.255737 215.41 97.210728
0.256015 29.57 97.90832
0.256294 32.13 98.487865
0.256573 -13.07 98.851112
0.256851 53.19 98.665503
0.25713 82.69 99.297995
0.257408 96.22 99.451098
0.257687 -22.95 100.51248
0.257965 3.89 99.855369
0.258244 -28.22 100.48945
0.258523 27.82 100.88134
0.258801 86.05 100.7466
0.25908 -145.41 101.2705
0.259358 28.5 100.55239
0.259637 -70.1 101.64244
0.259915 366.03 101.30798
0.260194 45.25 101.76014
0.260473 -9.21 101.59277
0.260751 -111.61 101.82026
0.26103 -75.31 102.93758
0.261308 69.28 102.6758
0.261587 154.6 102.78394
0.261865 133.5 101.06691
0.262144 -115.1 99.935647
0.262423 61.68 99.806585
0.262701 88.12 98.725393
0.26298 68.01 99.185257
0.263258 193.18 98.662303
0.263537 89.44 98.459945
0.263815 98.99 98.149025
0.264094 -190.88 97.208175
0.264373 88.15 98.456551
0.264651 239.55 97.125952
0.26493 48.89 97.021084
0.265208 101.63 97.590178
0.265487 -47.85 96.61996
0.265765 121.99 97.884389
0.266044 -0.61 96.814785
0.266323 87.69 97.185096
0.266601 -12.23 96.465784
0.26688 72.45 96.264888
0.267158 70.27 97.011036
0.267437 -44.42 95.604634
0.267715 119.63 96.367316
0.267994 156.52 96.277624
0.268273 -85.33 94.795243
0.268551 59.09 95.988968
0.26883 -44.38 94.413962
0.269108 58.94 95.008472
0.269387 -41.84 94.748565
0.269665 106.75 94.48647
0.269944 23.02 94.999575
0.270223 13.47 94.393647
0.270501 -11.27 94.261038
0.27078 151.63 94.167621
0.271058 75.3 94.15881
0.271337 36.98 94.025378
0.271615 108.34 93.687894
0.271894 9.68 93.619046
0.272172 128.88 94.160017
0.272451 -58.18 94.007679
0.27273 197.19 93.715528
0.273008 -98.03 94.296131
0.273287 -51.95 93.580032
0.273565 57.64 93.787144
0.273844 84.22 93.638524
0.274122 60.49 93.702118
0.274401 74.41 93.905108
0.27468 113.12 93.303154
0.274958 54.35 93.720956
0.275237 -53.28 93.176832
0.275515 -72.69 93.071764
0.275794 -95.1 93.296955
0.276072 118.87 93.35072
0.276351 -53.27 93.157491
0.27663 67.62 92.850768
0.276908 69.63 92.74243
0.277187 144.79 92.819336
0.277465 -135.87 92.853734
0.277744 96.54 93.246094
0.278022 17.16 92.682745
0.278301 -58.75 92.48765
0.27858 96.97 92.952313
0.278858 9.54 92.751945
0.279137 -23.42 93.051717
0.279415 58.98 92.616895
0.279694 -61.09 92.808832
0.279972 47.8 92.885245
0.280251 -94.39 92.309854
0.28053 36.77 92.377825
0.280808 122.68 92.699749
0.281087 14.69 92.136214
0.281365 -201.04 92.295415
0.281644 -75.07 92.652546
0.281922 -41.23 92.592162
0.282201 63.59 92.119049
0.28248 3.69 91.855094
0.282758 -10.76 91.663792
0.283037 -46.08 91.794064
0.283315 27.27 92.501401
0.283594 -60.81 91.740681
0.283872 78.15 92.269207
0.284151 67.73 92.15571
0.28443 -93.3 91.64392
0.284708 97.51 91.801037
0.284987 -96.85 91.778316
0.285265 12.78 91.808717
0.285544 110.71 91.226464
0.285822 -78.22 91.72583
0.286101 18.28 91.670561
0.28638 129.27 91.367556
0.286658 -13.09 91.232626
0.286937 49.62 91.576585
0.287215 89.59 91.161769
0.287494 -18.66 91.221084
0.287772 -182.83 91.648989
0.288051 33.07 91.022988
0.28833 3.29 91.329358
0.288608 -200.21 91.038822
0.288887 61.69 90.960571
0.289165 -18.16 91.081519
0.289444 116.91 90.773583
0.289722 23.81 90.653372
0.290001 55.27 90.961859
0.29028 -98.13 90.711592
0.290558 5.43 91.369317
0.290837 18.58 90.392109
0.291115 -60.83 90.515106
0.291394 3.67 90.7101
0.291672 -29.61 90.305527
0.291951 166.45 91.103029
0.29223 67.91 90.053036
0.292508 61.19 90.288798
0.292787 -15.83 90.558477
0.293065 99.32 90.623429
0.293344 89.96 90.504117
0.293622 -124.07 89.761203
0.293901 -130.95 90.7999
0.29418 35.65 90.345799
0.294458 63.35 89.998133
0.294737 -0.42 90.06737
0.295015 88.56 90.003387
0.295294 -3.13 90.199242
0.295572 80.47 89.836398
0.295851 -61.1 89.648039
0.29613 -176.16 89.819166
0.296408 -62.72 90.09859
0.296687 -91.9 90.281909
0.296965 65.74 89.889801
0.297244 91.65 89.263753
0.297522 99.09 90.295911
0.297801 56.97 89.394058
0.29808 -93.94 89.973639
0.298358 -120.46 89.788422
0.298637 -47.76 89.986704
0.298915 -97.18 89.297497
0.299194 99.95 89.071288
0.299472 41.37 89.331314
0.299751 -55.57 89.659317
0.30003 -12.79 89.424881
0.300308 47.63 89.059405
0.300587 47.51 89.066838
0.300865 -22.29 89.143958
0.301144 -3.43 89.508016
0.301422 1.98 88.979127
0.301701 -63.23 89.003857
0.30198 7.56 89.525767
0.302258 32.13 88.910053
0.302537 -10.68 89.384059
0.302815 -200.78 88.658251
0.303094 36.17 88.909247
0.303372 72.9 88.888213
0.303651 36.9 88.045604
0.30393 -1.53 88.882189
0.304208 -39.06 88.640064
0.304487 46.43 88.378011
0.304765 83.15 88.819712
0.305044 42.48 87.851903
0.305322 23.35 88.306559
0.305601 129.07 88.296626
0.30588 54.62 88.116284
0.306158 84.46 88.333696
0.306437 16.58 88.109097
0.306715 21 88.29014
0.306994 -151.57 88.456563
0.307272 -101.77 88.22879
0.307551 19.66 87.994175
0.30783 27.51 87.765371
0.308108 113.5 88.581167
0.308387 52.98 88.280702
0.308665 84.98 88.280832
0.308944 67.36 88.677685
0.309222 136.2 88.101017
0.309501 -48.41 88.081606
0.309779 44.42 88.144118
0.310058 19.37 88.198653
0.310337 -84.77 88.157132
0.310615 -99.66 88.041163
0.310894 -71.44 88.336539
0.311172 -60.68 87.824955
0.311451 25.03 88.447509
0.311729 -65.97 87.724389
0.312008 2.9 87.934513
0.312287 14.55 88.032465
0.312565 103.83 87.537858
0.312844 -114.15 88.125127
0.313122 -41.87 87.830011
0.313401 -42.76 88.064318
0.313679 24.95 87.799121
0.313958 -0.66 87.481567
0.314237 41.94 88.399543
0.314515 44.9 89.484948
0.314794 101.03 89.988321
0.315072 -1.43 90.526405
0.315351 -76.43 90.631917
0.315629 4.55 91.380761
0.315908 4.13 91.79628
0.316187 -84.37 92.293829
0.316465 -23.54 91.867795
0.316744 -38.6 93.128613
0.317022 151.7 92.84819
0.317301 73.24 92.722408
0.317579 16.47 93.386899
0.317858 -198.85 93.316324
0.318137 -66.93 94.315152
0.318415 67.31 93.460718
0.318694 -141.73 94.422851
0.318972 -22.16 94.381174
0.319251 -20.89 94.727149
0.319529 75.29 95.331299
0.319808 -1.93 94.63612
0.320087 -191.88 95.541393
0.320365 -132.67 95.120796
0.320644 29.22 95.441193
0.320922 70.02 94.868154
0.321201 20.52 92.999695
0.321479 -66.37 93.504572
0.321758 76.56 92.336934
0.322037 98.81 91.86366
0.322315 33.71 92.080994
0.322594 98.99 91.574622
0.322872 92.03 91.93364
0.323151 53.26 90.967256
0.323429 154.44 90.784081
0.323708 180.69 91.233873
0.323987 54.84 90.740485
0.324265 -6.12 90.887543
0.324544 118.92 91.0748
0.324822 117.51 90.660143
0.325101 -215.75 90.3315
0.325379 -63.93 90.218848
0.325658 -69.21 90.320902
0.325937 -155.93 89.987714
0.326215 -77.64 89.396172
0.326494 41.31 89.640971
0.326772 15.24 89.487161
0.327051 95.78 89.666685
0.327329 20.18 89.845905
0.327608 -95.57 89.177032
0.327887 -74.52 89.731005
0.328165 -48.6 89.023916
0.328444 -20.49 88.63424
0.328722 -97.68 88.874008
0.329001 -18.38 88.512218
0.329279 -63.88 88.895192
0.329558 -25.22 89.130128
0.329837 -124.76 87.92154
0.330115 -3.2 88.67803
0.330394 91.86 88.480908
0.330672 79.65 88.634508
0.330951 40.87 88.561154
0.331229 -33.55 88.074789
0.331508 -79.51 88.61557
0.331787 49.12 88.011463
0.332065 254.97 87.901695
0.332344 -125.1 88.004034
0.332622 2.69 87.675027
0.332901 -98.3 88.140917
0.333179 -43.51 87.541282
0.333458 -23.78 87.643173
0.333737 74.46 88.038355
0.334015 -99.53 87.691833
0.334294 -28.48 88.377617
0.334572 0.47 87.456546
0.334851 47.91 87.531085
0.335129 -54.48 87.94715
0.335408 131.47 87.219892
0.335687 58.91 87.978689
0.335965 141.26 87.266941
0.336244 -131.25 87.570731
0.336522 -223.97 87.833785
0.336801 -146.96 87.01841
0.337079 -59.77 87.389463
0.337358 -53.48 87.268516
0.337637 13.26 87.260613
0.337915 -5.94 87.658712
0.338194 1.52 87.005781
0.338472 65.25 87.118154
0.338751 71.04 87.064586
0.339029 11.88 87.240769
0.339308 -32.02 86.872774
0.339587 89.15 86.908607
0.339865 37.08 87.105164
0.340144 -58.13 86.928653
0.340422 -208.1 86.60135
0.340701 90.43 86.805616
0.340979 151.5 86.754397
0.341258 -85.35 86.616626
0.341537 -183.16 86.462019
0.341815 59.18 86.634677
0.342094 -55.48 86.498202
0.342372 58.14 86.588405
0.342651 149.76 86.32218
0.342929 7.76 86.188408
0.343208 -53.19 86.131964
0.343487 -145.68 86.515631
0.343765 -9.78 86.326059
0.344044 72.34 85.867546
0.344322 33.82 85.715218
0.344601 -155.3 86.027139
0.344879 4.55 85.949367
0.345158 78.71 85.573322
0.345436 -38.3 85.221868
0.345715 -25.5 86.065898
0.345994 -97.2 85.260077
0.346272 -23.58 85.45008
0.346551 2.01 85.408734
0.346829 145.03 85.263486
0.347108 1.83 85.644152
0.347386 12.21 84.772388
0.347665 97.55 85.701421
0.347944 -33.55 85.049445
0.348222 58.16 85.286515
0.348501 78.81 85.492995
0.348779 42.11 85.365326
0.349058 33.1 85.389336
0.349336 45.81 85.726361
0.349615 212.76 85.048605
0.349894 93.57 85.444104
0.350172 186.9 85.034726
0.350451 103.87 85.563596
0.350729 -26.49 85.226054
0.351008 -1.3 85.224161
0.351286 13.58 85.340044
0.351565 23.87 85.102074
0.351844 -25.86 85.508146
0.352122 -10.43 84.954583
0.352401 12.59 85.048103
0.352679 -12.16 85.768151
0.352958 -117.75 85.011447
0.353236 -1.28 85.48884
0.353515 -117.5 84.833297
0.353794 29.3 85.391318
0.354072 7.9 85.274716
0.354351 51.71 85.097513
0.354629 28.67 85.033105
0.354908 -12.46 85.399786
0.355186 -67.25 85.302499
0.355465 -1.47 85.035938
0.355744 -158.28 85.215545
0.356022 33.47 84.845852
0.356301 84.81 85.503338
0.356579 5.43 84.819709
0.356858 -23.9 85.07687
0.357136 93.24 85.185579
0.357415 -56.28 85.034765
0.357694 -36.11 85.423489
0.357972 104.76 84.922561
0.358251 191.75 85.009499
0.358529 -117.35 85.414104
0.358808 3.17 85.269889
0.359086 -34.23 84.824836
0.359365 109.46 84.90268
0.359644 -21.3 84.832723
0.359922 -102.92 85.244721
0.360201 1.52 84.868376
0.360479 43.46 85.359468
0.360758 48.66 84.828025
0.361036 155.07 85.118484
0.361315 -162.39 84.889864
0.361594 98.73 84.989302
0.361872 8.88 85.108367
0.362151 -40.75 84.948571
0.362429 -93.24 84.963223
0.362708 131.42 84.725544
0.362986 -32.58 84.647435
0.363265 63.62 84.850386
0.363544 202.24 84.828682
0.363822 3.49 84.718626
0.364101 -37.02 84.791975
0.364379 62.03 84.488575
0.364658 32.61 85.155035
0.364936 23.24 84.468308
0.365215 -39.83 84.511231
0.365494 120.14 85.12724
0.365772 8.44 84.675555
0.366051 -83 84.944041
0.366329 -39.55 84.446176
0.366608 89.9 84.863286
0.366886 -123.89 84.55981
0.367165 77.48 84.703327
0.367444 61.27 84.752865
0.367722 27.68 84.607534
0.368001 -153.84 84.75231
0.368279 57.4 85.197456
0.368558 96.28 84.653757
0.368836 86.36 84.652695
0.369115 35.02 84.669567
0.369394 -79.76 85.342949
0.369672 -24.56 84.907925
0.369951 127.67 84.981134
0.370229 159.67 84.922691
0.370508 89.62 84.66857
0.370786 121.61 85.094963
0.371065 -4.18 84.82047
0.371344 -6.51 85.17595
0.371622 6.9 84.989488
0.371901 51.61 84.816474
0.372179 81.67 84.849413
0.372458 -152.32 85.118594
0.372736 -101.22 85.016223
0.373015 131.97 84.585483
0.373294 93.52 85.789172
0.373572 16.86 86.816285
0.373851 143.13 87.420861
0.374129 -48.91 87.861394
0.374408 -100.28 88.138223
0.374686 -262.17 88.80561
0.374965 99.91 88.731198
0.375244 29.77 89.376026
0.375522 22.59 89.141613
0.375801 35.43 89.447814
0.376079 30.32 90.167336
0.376358 -69.68 89.958233
0.376636 -221.7 90.853873
0.376915 39.01 89.921597
0.377194 -75.98 90.777695
0.377472 121.34 91.255498
0.377751 107.49 91.094086
0.378029 -93.13 91.88349
0.378308 50.58 91.001305
0.378586 74.06 91.824699
0.378865 -151.55 92.791507
0.379144 -33.01 92.375344
0.379422 127.26 92.867663
0.379701 -159.58 93.01113
0.379979 47.45 91.855378
0.380258 -131.46 91.036592
0.380536 -109.06 89.895994
0.380815 -60.53 89.635098
0.381093 -77.87 89.916376
0.381372 -59.93 89.753658
0.381651 -27.14 89.291065
0.381929 -11.18 88.616299
0.382208 8.45 88.502592
0.382486 1.27 88.80641
0.382765 -7.33 88.806332
0.383043 -200.78 88.69379
0.383322 53.76 88.714695
0.383601 17.34 88.533749
0.383879 -182.46 88.164354
0.384158 -38.34 88.035035
0.384436 -18.23 87.81248
0.384715 131.42 88.241544
0.384993 177.19 87.64078
0.385272 -20.34 87.820611
0.385551 -7.1 87.039994
0.385829 22.29 87.438084
0.386108 -141.91 88.05958
0.386386 69.37 86.995567
0.386665 39.37 87.714545
0.386943 116.8 86.817796
0.387222 120.12 87.629855
0.387501 -78.29 87.158277
0.387779 170.93 86.737516
0.388058 48.41 87.458959
0.388336 25.65 86.900101
0.388615 -150.75 86.867965
0.388893 -17.18 86.916938
0.389172 -85.26 86.81473
0.389451 -39.42 87.762784
0.389729 120.81 86.286742
0.390008 44.12 86.670359
0.390286 45.43 86.53083
0.390565 -34.26 85.975131
0.390843 -9.18 86.735198
0.391122 -6.26 86.342861
0.391401 45.73 86.594291
0.391679 -1.14 86.469769
0.391958 -70.54 86.211158
0.392236 -6.67 86.145325
0.392515 -10.68 86.096265
0.392793 101.44 86.279299
0.393072 -24.34 86.274826
0.393351 -22.76 85.724301
0.393629 4.97 86.412832
0.393908 0.02 86.027361
0.394186 -104.92 86.458469
0.394465 48.06 85.914241
0.394743 181.75 86.021831
0.395022 91.13 86.029878
0.395301 115.41 85.990387
0.395579 -16.08 86.400509
0.395858 -199.99 86.359167
0.396136 -0.99 86.749459
0.396415 14.62 86.2447
0.396693 -21.6 86.181109
0.396972 51.98 86.561076
0.397251 -3.98 86.317419
0.397529 108.48 86.490581
0.397808 128.36 86.408108
0.398086 -94.96 86.071655
0.398365 -118.99 86.838792
0.398643 -124.04 86.170235
0.398922 65.46 86.551712
0.399201 -48.7 86.735999
0.399479 165.29 86.395148
0.399758 38.24 86.679864
0.400036 -166.39 86.802809
0.400315 -136.77 86.201495
0.400593 38.08 86.555083
0.400872 12.31 86.785524
0.401151 -0.26 86.873196
0.401429 73.58 86.356954
0.401708 64.02 86.312174
0.401986 75.4 86.781903
0.402265 -18.14 86.55992
0.402543 20.97 86.401149
0.402822 89.56 86.717355
0.403101 -54.19 86.452424
0.403379 29.89 86.564695
0.403658 14.86 86.976345
0.403936 -67.32 86.143935
0.404215 160.67 86.774369
0.404493 16.43 86.453325
0.404772 107.1 86.587439
0.405051 -10.96 86.987026
0.405329 -104.41 86.102867
0.405608 -102.85 87.247056
0.405886 135.07 86.745917
0.406165 -78.54 86.953345
0.406443 -4.01 86.568688
0.406722 58.54 87.16814
0.407001 -56.55 87.043676
0.407279 -105.54 86.694595
0.407558 38.42 86.762944
0.407836 -43.65 86.698511
0.408115 -24.93 86.58507
0.408393 112.87 87.267808
0.408672 132.72 86.350726
0.408951 -53.26 87.072352
0.409229 98.65 86.269278
0.409508 -68.25 86.581713
0.409786 111.16 86.82228
0.410065 122.3 86.157824
0.410343 -8.16 86.673373
0.410622 -20.89 86.835463
0.410901 2.75 86.804196
0.411179 -89.59 86.586707
0.411458 -17.11 86.313609
0.411736 -10.14 86.523557
0.412015 143.86 86.576678
0.412293 35.01 86.795491
0.412572 31.65 86.705768
0.412851 144.07 86.462904
0.413129 105.1 86.36257
0.413408 111.98 86.43002
0.413686 221.38 86.62436
0.413965 -156.92 85.995116
0.414243 74.86 86.714403
0.414522 -34.06 86.305683
0.414801 9.17 86.283678
0.415079 105.22 86.374224
0.415358 -84.75 86.427687
0.415636 -56.61 86.977156
0.415915 40.14 86.301142
0.416193 50.45 86.437349
0.416472 28.42 86.471283
0.416751 -134.32 85.900378
0.417029 87.36 86.550535
0.417308 25.27 85.788309
0.417586 38.61 86.135491
0.417865 -3.31 86.400359
0.418143 -63.9 85.925339
0.418422 -27.64 86.316366
0.4187 -74.24 85.768128
0.418979 24.87 86.188514
0.419258 -5.64 86.197485
0.419536 -72.86 85.912814
0.419815 70.65 86.103777
0.420093 -4.76 86.202975
0.420372 113.39 86.12243
0.42065 125.24 86.272705
0.420929 84.92 86.237951
0.421208 -49.26 86.14948
0.421486 42.51 86.363533
0.421765 71.42 86.291152
0.422043 217.73 86.336615
0.422322 10.17 86.591564
0.4226 31.02 86.751844
0.422879 -142.83 86.371181
0.423158 -61.93 86.65511
0.423436 8.31 86.515676
0.423715 56.67 86.328706
0.423993 -115.04 86.602889
0.424272 141.92 86.206277
0.42455 122.82 86.466541
0.424829 -13.79 86.796579
0.425108 142.31 86.77592
0.425386 -158.95 86.864203
0.425665 5.45 86.763336
0.425943 68.99 86.347595
0.426222 69.1 86.637155
0.4265 17.48 86.443637
0.426779 -103.75 87.059075
0.427058 -33.03 86.705438
0.427336 214.26 86.403636
0.427615 112.16 86.901228
0.427893 113.69 86.767722
0.428172 -17.97 86.435492
0.42845 28.12 86.804043
0.428729 16.05 86.17571
0.429008 93.01 86.70979
0.429286 16.78 86.417919
0.429565 -50.45 86.852346
0.429843 130.62 86.859618
0.430122 5.89 86.78749
0.4304 19.84 86.921861
0.430679 -21.47 86.430364
0.430958 84.01 86.71778
0.431236 80.91 86.916817
0.431515 23.39 86.515265
0.431793 -122.66 87.066418
0.432072 34.25 86.504235
0.43235 -70.33 88.211547
0.432629 -63.31 88.845852
0.432908 98.47 89.430371
0.433186 97.06 91.182404
0.433465 13.92 90.844063
0.433743 151.89 92.13431
0.434022 -127.44 91.375338
0.4343 -84.29 92.047808
0.434579 40.18 93.204359
0.434858 -39.87 92.520123
0.435136 -117.19 93.572316
0.435415 7.35 93.665989
0.435693 95.93 93.836741
0.435972 -212.58 95.145957
0.43625 69.39 94.420443
0.436529 -79.83 95.422874
0.436808 101.25 95.691527
0.437086 -32.16 95.180041
0.437365 -86.91 96.492885
0.437643 9.82 95.721033
0.437922 -35.37 97.472405
0.4382 5.76 97.025427
0.438479 -60.21 97.373064
0.438758 187.16 97.741966
0.439036 17.97 95.531183
0.439315 -23.24 95.069324
0.439593 -25.11 93.949207
0.439872 40.48 93.96752
0.44015 93.81 93.634996
0.440429 52.48 92.607406
0.440708 -13.97 92.889367
0.440986 -25.08 92.203271
0.441265 90.5 92.65783
0.441543 139.74 92.424106
0.441822 -15.82 92.472125
0.4421 -74.52 91.89678
0.442379 -41.92 91.959929
0.442658 118.06 91.929585
0.442936 74.52 91.661308
0.443215 15.7 91.581366
0.443493 39.43 91.010802
0.443772 -34.17 91.229116
0.44405 -75.05 91.196606
0.444329 -55.71 91.257708
0.444608 111.09 91.094726
0.444886 69.99 91.178089
0.445165 136.19 91.232464
0.445443 29.02 90.922515
0.445722 167.28 91.039523
0.446 103.92 91.370399
0.446279 5.92 90.86481
0.446558 24.08 90.733617
0.446836 96.15 91.39899
0.447115 -87.45 90.371884
0.447393 113.66 90.58168
0.447672 -15.9 90.608037
0.44795 86.06 90.514363
0.448229 45.86 90.474224
0.448508 51.94 90.175573
0.448786 6.25 90.597802
0.449065 -22.51 90.470755
0.449343 -43.41 89.998569
0.449622 61.62 90.242333
0.4499 -101.29 89.666099
0.450179 83.42 89.96077
0.450458 -32.72 89.823139
0.450736 -78.43 90.332295
0.451015 132.11 89.476625
0.451293 19.53 89.86048
0.451572 61.47 89.65665
0.45185 -28.12 89.520174
0.452129 94.3 89.553165
0.452408 37.39 89.868858
0.452686 -39.17 89.602447
0.452965 201.93 89.211285
0.453243 -8.34 89.620028
0.453522 -107.98 89.598853
0.4538 -115.42 89.759922
0.454079 34.17 89.675442
0.454357 -44.84 88.946739
0.454636 74.88 89.781798
0.454915 74.83 89.985578
0.455193 43.97 88.872127
0.455472 -56.61 89.788695
0.45575 -23.93 89.337717
0.456029 94.85 89.682651
0.456307 -74.45 89.992722
0.456586 -143.86 88.926791
0.456865 -70.21 89.370001
0.457143 -42.81 89.110314
0.457422 59.56 89.73039
0.4577 63.21 89.279995
0.457979 -177.04 89.224298
0.458257 -154.48 89.521893
0.458536 85.07 89.170153
0.458815 5.17 89.316005
0.459093 45.43 89.334659
0.459372 -98.86 89.570137
0.45965 -69.02 89.688474
0.459929 47.17 88.872723
0.460207 -13.74 89.500654
0.460486 -113.63 89.074605
0.460765 -5.19 89.528776
0.461043 -25.49 89.271542
0.461322 -45.18 89.246616
0.4616 -83.03 89.36737
0.461879 83.58 88.559213
0.462157 38.86 89.93289
0.462436 29.27 89.251507
0.462715 -222.48 88.880871
0.462993 -82.22 89.45886
0.463272 26.75 88.826676
0.46355 10.6 89.72799
0.463829 -43.33 89.420254
0.464107 98.08 89.002918
0.464386 36.84 89.534326
0.464665 145.83 88.726025
0.464943 -61.3 89.552046
0.465222 -58.01 88.891629
0.4655 101.5 89.689435
0.465779 67.12 89.182254
0.466057 -74.38 89.147906
0.466336 76.51 89.428377
0.466615 125.22 89.217931
0.466893 -10.15 89.822285
0.467172 -54.05 88.994202
0.46745 60.2 89.267963
0.467729 114.23 89.541441
0.468007 -141.64 88.924619
0.468286 -54.99 89.270517
0.468565 30.82 89.423169
0.468843 -23.71 89.449856
0.469122 -74.03 89.152081
0.4694 -58.39 89.178353
0.469679 138.11 89.493926
0.469957 -28.33 88.48237
0.470236 158.5 89.098881
0.470515 112.83 89.232051
0.470793 184.37 88.902882
0.471072 21.53 89.250998
0.47135 137.45 88.787002
0.471629 27.19 89.126065
0.471907 108.5 88.804531
0.472186 61.99 89.420738
0.472465 -37.5 88.906652
0.472743 -72.74 89.22116
0.473022 81.62 88.797021
0.4733 -67.34 88.71288
0.473579 -21.56 88.921063
0.473857 -142.57 89.029234
0.474136 -16.22 88.973366
0.474415 102.92 89.372835
0.474693 103.01 88.459961
0.474972 66.29 89.319596
0.47525 53.66 89.158716
0.475529 -75.52 89.374207
0.475807 -83.28 89.418364
0.476086 -105.92 88.701995
0.476365 154.44 89.683095
0.476643 52.14 88.923315
0.476922 116.03 89.440573
0.4772 60.71 89.403211
0.477479 105.18 88.969673
0.477757 56.2 89.531082
0.478036 88.67 88.850569
0.478315 -71.87 89.912816
0.478593 178.9 89.100256
0.478872 23.97 89.300411
0.47915 128.55 89.887008
0.479429 15.19 88.530892
0.479707 174.32 90.013167
0.479986 98.27 88.971975
0.480265 -93.9 89.61136
0.480543 -17.87 89.59924
0.480822 119.85 88.869916
0.4811 55.53 89.278292
0.481379 198.4 89.161769
0.481657 -54.76 89.402509
0.481936 101.21 89.50232
0.482215 26.09 89.462043
0.482493 -70.16 89.536
0.482772 4.03 89.414736
0.48305 45.46 89.499789
0.483329 89.98 89.165812
0.483607 158.06 89.213931
0.483886 -11.25 89.596138
0.484165 -1.68 88.949817
0.484443 124.42 89.472714
0.484722 7.51 89.071819
0.485 61.77 89.228172
0.485279 45.05 88.89097
0.485557 101.72 89.143018
0.485836 184.79 88.894296
0.486115 43.22 88.80383
0.486393 -45.36 89.219828
0.486672 -116.82 88.836928
0.48695 177.81 88.687925
0.487229 216.51 89.31134
0.487507 -88.58 88.641084
0.487786 10.41 89.313462
0.488065 -129.91 88.445386
0.488343 -100.88 88.968593
0.488622 -69.92 89.187972
0.4889 71.45 88.909385
0.489179 -139.16 89.31825
0.489457 -18.23 88.475554
0.489736 -55.88 89.370259
0.490014 85.55 88.723672
0.490293 95.73 89.030897
0.490572 21.48 89.084525
0.49085 63.67 88.567988
0.491129 22.5 88.988849
0.491407 53.6 89.900529
0.491686 59.17 91.612123
0.491964 -33.38 92.063345
0.492243 9.55 92.184619
0.492522 75.6 94.274167
0.4928 -118.2 93.663491
0.493079 5.83 94.073847
0.493357 -87.8 94.571865
0.493636 19.44 94.329719
0.493914 117.99 95.287191
0.494193 -114.27 94.903502
0.494472 234.43 96.10487
0.49475 58.87 96.451712
0.495029 -31.99 96.365325
0.495307 -11.23 97.979326
0.495586 39.5 96.776972
0.495864 23.58 97.821481
0.496143 -2.25 97.936684
0.496422 113.13 98.634981
0.4967 7.67 99.119275
0.496979 -48.3 99.001246
0.497257 166.45 99.965987
0.497536 31.4 99.834497
0.497814 92.79 100.47006
0.498093 194.38 98.886871
0.498372 97.83 97.040338
0.49865 -27.14 97.183132
0.498929 84.96 95.903026
0.499207 -219.31 95.72608
0.499486 -2.58 95.226705
0.499764 -77.13 95.548589
0.500043 -27.54 95.333415
0.500322 42.19 95.156327
0.5006 -87.63 94.711735
0.500879 -129.38 94.315434
0.501157 125.16 94.459072
0.501436 -112.69 93.636787
0.501714 26.74 93.694929
0.501993 -5.78 94.343373
0.502272 -52.04 93.620916
0.50255 -52.19 93.881113
0.502829 94.38 93.55563
0.503107 139.18 93.720652
0.503386 84.39 94.024894
0.503664 -172.61 93.209054
0.503943 102.58 93.621097
0.504222 -39.15 92.126554
0.5045 48.07 93.275078
0.504779 -53.6 92.801283
0.505057 70.76 92.849548
0.505336 174.3 93.033655
0.505614 54.09 92.551387
0.505893 58.93 93.273019
0.506172 -97.11 92.509772
0.50645 -113.42 92.538392
0.506729 55.08 93.577017
0.507007 -27.44 92.464971
0.507286 6.66 92.902691
0.507564 -29.66 92.247118
0.507843 -19.25 92.917598
0.508122 -108.14 93.021056
0.5084 -11.55 92.228858
0.508679 96.23 92.960324
0.508957 110.59 92.320147
0.509236 34.9 92.947537
0.509514 9.29 92.473799
0.509793 72.26 92.110316
0.510072 159.71 92.633938
0.51035 -143.33 92.140866
0.510629 -78.66 92.79271
0.510907 -2.52 92.257332
0.511186 -3.66 92.192827
0.511464 13.68 92.617322
0.511743 96.11 92.337455
0.512022 -9.13 92.553468
0.5123 -65.35 92.134941
0.512579 134.08 92.734188
0.512857 101.71 92.261571
0.513136 62.15 91.83367
0.513414 -127.89 92.703322
0.513693 -125.9 92.147859
0.513972 35.71 92.458034
0.51425 -7.15 92.244729
0.514529 -5.58 92.390133
0.514807 -15.14 92.333612
0.515086 151.15 92.221767
0.515364 108.11 92.260988
0.515643 52.17 92.240731
0.515922 38.69 91.768965
0.5162 42.22 91.964261
0.516479 196.05 92.353065
0.516757 3.69 92.040836
0.517036 78.92 91.977588
0.517314 77.56 92.138216
0.517593 3.67 92.126912
0.517872 89.14 91.819201
0.51815 58.76 92.547832
0.518429 58.66 91.871979
0.518707 177.3 92.290217
0.518986 -105.33 91.979804
0.519264 28.03 92.127175
0.519543 -114.18 91.953228
0.519822 121.59 91.807316
0.5201 -14.12 92.214578
0.520379 -9.84 91.853668
0.520657 78.14 91.893861
0.520936 161.27 92.080081
0.521214 -65.03 91.904002
0.521493 -42 91.723298
0.521772 258.18 91.741911
0.52205 105.69 91.927005
0.522329 -102.19 92.008821
0.522607 106.83 91.881921
0.522886 -162.05 92.015481
0.523164 126.25 91.583968
0.523443 21.03 91.907107
0.523722 79.73 91.372404
0.524 94.98 91.399838
0.524279 157.17 91.515216
0.524557 190.7 91.43189
0.524836 73.69 90.985302
0.525114 20.78 90.873854
0.525393 -2.15 90.822842
0.525671 157.48 91.340019
0.52595 -54.73 91.201199
0.526229 28.11 91.221732
0.526507 140.58 90.746837
0.526786 -32.65 90.991883
0.527064 73.11 91.475744
0.527343 72.25 90.976634
0.527621 -4.25 90.668207
0.5279 -72.63 91.257409
0.528179 80.46 90.628697
0.528457 181.32 90.93078
0.528736 -18.81 90.954857
0.529014 -1.42 90.846147
0.529293 -52.87 90.897361
0.529571 -30.4 90.684636
0.52985 -58.65 90.94385
0.530129 54.88 90.700117
0.530407 -33.63 91.25747
0.530686 -110.68 91.252178
0.530964 -35.17 90.956548
0.531243 54.18 90.830981
0.531521 251.16 91.14924
0.5318 54.09 90.887741
0.532079 -37.19 91.408699
0.532357 278.7 91.178032
0.532636 77.42 91.052666
0.532914 66.52 91.555476
0.533193 64.28 90.991624
0.533471 164.56 91.089778
0.53375 1.49 90.719456
0.534029 36.06 91.341223
0.534307 -96.22 91.255467
0.534586 180.89 90.864461
0.534864 -52.17 91.127147
0.535143 53.66 91.19037
0.535421 16.95 91.151731
0.5357 64.27 91.194118
0.535979 30.89 91.256439
0.536257 201.25 91.069039
0.536536 142.96 91.246828
0.536814 19.98 91.036449
0.537093 5.82 91.224551
0.537371 38.14 91.074674
0.53765 22.23 91.167196
0.537929 -85.59 90.507564
0.538207 30.93 90.858293
0.538486 107.7 91.330893
0.538764 -44.75 90.935824
0.539043 -14.81 90.804583
0.539321 80.68 90.817169
0.5396 -96.58 90.634154
0.539879 91.55 91.297845
0.540157 -36.97 90.576179
0.540436 -223.32 90.748972
0.540714 -36.57 90.618979
0.540993 77.35 90.655378
0.541271 139.41 90.914132
0.54155 30.88 90.463832
0.541829 127.89 90.548015
0.542107 -64.58 90.209989
0.542386 48.2 90.571795
0.542664 14.14 90.55707
0.542943 -57.11 90.38231
0.543221 -22.94 90.078329
0.5435 123.86 90.495492
0.543779 47.95 89.90447
0.544057 26.6 90.099402
0.544336 69.33 90.509289
0.544614 -42.49 90.542579
0.544893 -42.35 90.103615
0.545171 40.45 89.927783
0.54545 -62.64 89.945209
0.545729 -84.75 90.175338
0.546007 133.69 90.269744
0.546286 14.77 90.265167
0.546564 76.17 90.273711
0.546843 -60.02 90.028538
0.547121 89.27 89.989315
0.5474 178.82 90.180101
0.547679 55.78 90.650485
0.547957 11.66 90.383185
0.548236 122.68 90.494684
0.548514 -51.54 90.573513
0.548793 84.02 90.168843
0.549071 244.41 90.398611
0.54935 -4.38 90.56815
0.549629 -3.98 90.10964
0.549907 -86.47 90.421092
0.550186 45.23 90.615931
0.550464 75.62 92.473704
0.550743 -55.98 93.348179
0.551021 -122.18 94.777924
0.5513 52.2 95.304958
0.551579 136.01 95.904464
0.551857 -136.49 96.500845
0.552136 -167.54 96.987861
0.552414 -32.61 97.523935
0.552693 70.94 97.736555
0.552971 17.92 98.224438
0.55325 92.3 99.112676
0.553529 -7.05 99.649666
0.553807 -36.81 99.713574
0.554086 -35.3 99.991974
0.554364 46.27 100.68125
0.554643 64.25 101.4298
0.554921 93.86 100.98611
0.5552 147.45 101.9228
0.555479 -32.14 102.28133
0.555757 56.2 102.59227
0.556036 22.97 103.43662
0.556314 99.18 103.3245
0.556593 95.4 104.26087
0.556871 41.24 104.31103
0.55715 150.63 102.28686
0.557429 -59.61 101.84558
0.557707 139.89 100.37901
0.557986 73.37 99.257597
0.558264 -32.45 99.381764
0.558543 -121.49 97.836948
0.558821 -104.46 98.582583
0.5591 58.71 97.980301
0.559379 -8.95 97.9245
0.559657 -83.68 97.347932
0.559936 -119.79 97.349352
0.560214 241.19 97.548936
0.560493 141.87 97.20311
0.560771 -70.01 96.833451
0.56105 -25.74 96.733833
0.561329 169.4 97.074674
0.561607 55.78 96.644694
0.561886 5.13 96.111757
0.562164 -29.78 96.567939
0.562443 39.66 96.554737
0.562721 21.15 95.761374
0.563 5.7 95.811437
0.563278 33.31 95.789102
0.563557 11.91 96.080577
0.563836 -24.98 95.774446
0.564114 -96.62 95.700288
0.564393 58.76 95.427002
0.564671 -70.72 95.444424
0.56495 -10.33 95.662667
0.565228 88.15 96.047389
0.565507 -1.45 95.654141
0.565786 -78.01 95.703681
0.566064 70.47 95.824327
0.566343 15.58 95.560546
0.566621 208.46 94.947961
0.5669 77.08 95.267221
0.567178 86.91 95.239781
0.567457 251.46 95.39331
0.567736 179.88 94.667954
0.568014 168.92 95.201043
0.568293 -38.34 94.990139
0.568571 96.57 94.885634
0.56885 41.27 95.36997
0.569128 126.39 94.621957
0.569407 -33.28 94.834093
0.569686 -39.37 94.757486
0.569964 190.47 94.39156
0.570243 -30.61 94.433312
0.570521 -14.33 94.138296
0.5708 -118.73 94.535815
0.571078 -11.85 94.118132
0.571357 -193.54 93.870037
0.571636 141.96 94.32575
0.571914 -3.42 94.174724
0.572193 261.73 93.529216
0.572471 179.95 94.088631
0.57275 -80.69 94.276213
0.573028 -93.49 94.228104
0.573307 26.97 93.806207
0.573586 -205.31 94.073453
0.573864 57.16 94.039187
0.574143 -48.41 93.921291
0.574421 60.01 94.075917
0.5747 20.84 94.123009
0.574978 -69.37 93.859047
0.575257 -77.87 93.811439
0.575536 -43.85 93.726168
0.575814 10.05 93.866261
0.576093 -32.39 93.799725
0.576371 43.49 93.654077
0.57665 89.71 94.186751
0.576928 135.47 93.675797
0.577207 85.63 93.894525
0.577486 -7.28 93.497804
0.577764 -95.12 93.912652
0.578043 34.92 93.470982
0.578321 55.43 93.834773
0.5786 -38.72 93.630749
0.578878 81.52 94.047418
0.579157 -63.93 93.416459
0.579436 -36.45 94.00521
0.579714 -132.08 92.753143
0.579993 13.13 93.306681
0.580271 119.12 93.282208
0.58055 -46.26 93.135827
0.580828 -48.88 93.330888
0.581107 99.35 92.848135
0.581386 128.39 93.713568
0.581664 -110.95 93.046294
0.581943 37.09 93.146522
0.582221 272.18 93.32726
0.5825 8.5 93.584435
0.582778 -107.42 93.436749
0.583057 42.32 93.042207
0.583336 -70.67 92.695502
0.583614 108.9 93.365572
0.583893 92.75 93.586933
0.584171 94.77 93.424193
0.58445 23.63 92.894316
0.584728 -80.19 93.380389
0.585007 203.52 93.078886
0.585286 -18.22 93.056902
0.585564 89.08 93.141916
0.585843 37.2 93.212184
0.586121 9 93.291296
0.5864 191.99 93.593619
0.586678 -131.26 93.210116
0.586957 115.14 93.105425
0.587236 -184.95 93.27108
0.587514 143.42 93.262021
0.587793 139.5 92.877665
0.588071 -30.97 92.931563
0.58835 165.12 93.054016
0.588628 108.03 92.9244
0.588907 90.2 92.712256
0.589186 69.38 92.970311
0.589464 2.58 92.762479
0.589743 -91.14 92.49339
0.590021 116.26 92.672069
0.5903 -32.55 92.19489
0.590578 155.23 92.939013
0.590857 88.94 92.908486
0.591136 -88.09 92.356899
0.591414 -52.69 92.571464
0.591693 33.7 92.365912
0.591971 6.46 92.782985
0.59225 176.99 92.565696
0.592528 105.47 92.834575
0.592807 23.41 92.185236
0.593086 115.43 92.337423
0.593364 -197.79 92.772952
0.593643 -53.72 92.398087
0.593921 194.23 92.582758
0.5942 -50.56 92.660251
0.594478 251.73 92.413048
0.594757 53.42 92.133448
0.595036 56.09 92.597307
0.595314 95.36 92.502677
0.595593 122.39 92.513535
0.595871 108.1 92.661879
0.59615 -40.28 92.579195
0.596428 41.02 92.430724
0.596707 37.39 92.650996
0.596986 -36.72 92.032665
0.597264 -63.12 92.285993
0.597543 154.77 92.429681
0.597821 163.71 91.937981
0.5981 -0.99 92.019298
0.598378 133.05 92.383562
0.598657 -42.87 92.344111
0.598935 -47.61 92.372274
0.599214 -16.59 92.57059
0.599493 166.79 92.449666
0.599771 -6.88 92.125649
0.60005 139.5 92.281559
0.600328 117.99 92.342629
0.600607 -53.14 92.491631
0.600885 -46.57 92.130919
0.601164 -6.81 92.274615
0.601443 55.91 92.558621
0.601721 -81.73 92.057865
0.602 -86.19 92.278797
0.602278 106.25 92.467558
0.602557 -47.74 92.404187
0.602835 -100.76 92.228627
0.603114 5.92 92.27411
0.603393 6.38 92.570089
0.603671 97.94 93.064686
0.60395 194.02 92.08076
0.604228 11.86 92.754272
0.604507 69.64 92.558761
0.604785 215.26 92.918834
0.605064 -2.59 92.940499
0.605343 225.39 93.075122
0.605621 -35.24 92.6395
0.6059 38.17 92.596823
0.606178 -120.41 92.754005
0.606457 -101.34 92.640595
0.606735 62.67 92.710238
0.607014 101.54 92.290659
0.607293 52.99 92.670546
0.607571 -70.15 92.296141
0.60785 92.85 92.655772
0.608128 36.18 92.556068
0.608407 11.07 92.869485
0.608685 -59.13 92.929639
0.608964 131.21 92.612328
0.609243 44.74 92.49761
0.609521 67.19 94.894691
0.6098 -73.83 95.865055
0.610078 315.09 97.097607
0.610357 233.91 97.705728
0.610635 51.87 98.701061
0.610914 18.68 99.190975
0.611193 -30.92 99.95658
0.611471 42.19 100.49542
0.61175 -50.53 100.56666
0.612028 207.25 101.7094
0.612307 126.76 101.47551
0.612585 179.77 102.43233
0.612864 -47.77 102.47686
0.613143 99.85 104.09895
0.613421 109.54 103.755
0.6137 -159.77 104.05427
0.613978 -2.46 104.29324
0.614257 -206.55 104.62949
0.614535 206.55 105.64531
0.614814 126.19 105.9128
0.615093 -115.11 105.72841
0.615371 89.85 107.11389
0.61565 -83.86 106.59179
0.615928 183.6 107.48669
0.616207 -147.45 104.99218
0.616485 90.38 103.28582
0.616764 15.14 102.07186
0.617043 -99.63 101.73937
0.617321 -81.94 100.55569
0.6176 194.06 100.86458
0.617878 -20.51 100.13452
0.618157 17.78 99.792355
0.618435 120.03 99.539323
0.618714 93.14 99.604871
0.618993 -0.23 99.696842
0.619271 23.55 98.510979
0.61955 -16.43 99.175327
0.619828 212.79 98.602295
0.620107 128.99 98.611122
0.620385 127.96 98.856649
0.620664 73.32 98.070811
0.620943 87.98 97.955142
0.621221 54.75 98.02039
0.6215 27.28 98.126967
0.621778 47.58 98.149675
0.622057 -201.24 97.090711
0.622335 -98.33 97.880805
0.622614 127.37 97.889538
0.622893 -146.55 97.060005
0.623171 123.39 98.192471
0.62345 -4.98 97.403907
0.623728 -99.72 97.213813
0.624007 35.52 97.493922
0.624285 -145.12 97.278759
0.624564 121.04 97.442462
0.624843 65.01 97.772117
0.625121 35.08 97.246733
0.6254 -28.36 97.658751
0.625678 102.9 96.72499
0.625957 -80.88 97.274499
0.626235 -24.8 97.280866
0.626514 -88.56 96.686881
0.626793 254.11 97.312183
0.627071 27.05 96.62331
0.62735 57.83 96.804662
0.627628 31.27 96.589323
0.627907 95.06 96.930233
0.628185 8.61 96.671712
0.628464 82.62 97.25856
0.628743 -155.97 96.56835
0.629021 -51.64 97.240433
0.6293 89.32 96.629062
0.629578 -12.98 96.879689
0.629857 2.68 96.819235
0.630135 123.46 97.003604
0.630414 165.33 96.327046
0.630693 123.47 96.551913
0.630971 176.18 96.779358
0.63125 272.7 96.355208
0.631528 38.71 96.510434
0.631807 155.1 96.742648
0.632085 -65.85 96.44046
0.632364 -80.31 96.655472
0.632643 146.54 95.969617
0.632921 10.17 96.045965
0.6332 -56.52 96.65876
0.633478 -11.79 96.549758
0.633757 -10.91 96.63737
0.634035 54.45 96.277668
0.634314 -49.28 96.459763
0.634592 53.19 96.285045
0.634871 -2.24 96.620422
0.63515 101.43 95.905877
0.635428 156.52 96.423307
0.635707 88.82 95.731751
0.635985 -88.43 95.879869
0.636264 35.06 95.744215
0.636542 -117.53 95.419309
0.636821 -127.89 96.098692
0.6371 59.35 95.516404
0.637378 64.56 95.682299
0.637657 -265.54 95.445053
0.637935 125.83 95.376759
0.638214 23.55 95.319095
0.638492 7.19 95.427724
0.638771 -69.31 95.045594
0.63905 52.82 95.33823
0.639328 44.88 94.973178
0.639607 -74.55 95.348602
0.639885 28.34 94.816583
0.640164 33.9 94.726868
0.640442 198.99 95.320591
0.640721 20.59 94.50661
0.641 32.83 94.318189
0.641278 104.11 95.386034
0.641557 -91.36 95.222546
0.641835 -56.99 94.809099
0.642114 -24.87 94.646689
0.642392 110.06 94.780279
0.642671 -61.13 95.293805
0.64295 35.03 95.06069
0.643228 -1.98 95.084964
0.643507 164.07 94.840747
0.643785 -13.74 95.244726
0.644064 24.95 94.873
0.644342 -19.86 94.90256
0.644621 79.9 94.804349
0.6449 -180.71 95.079684
0.645178 134.68 94.628561
0.645457 162.47 94.853189
0.645735 35.33 94.602406
0.646014 -52.14 94.896242
0.646292 63.26 95.085856
0.646571 148.99 94.978283
0.64685 156.32 94.583434
0.647128 120.82 95.309733
0.647407 -24.66 95.096803
0.647685 42.33 95.129399
0.647964 -90.08 95.229155
0.648242 -167.45 94.556742
0.648521 -111.42 95.094969
0.6488 79.38 94.82482
0.649078 74.11 94.825007
0.649357 -59.59 94.931413
0.649635 264.76 94.804088
0.649914 31.18 94.862595
0.650192 41.38 94.825762
0.650471 65.22 94.438257
0.65075 -137.61 94.965823
0.651028 78.76 94.766328
0.651307 32.31 94.765571
0.651585 -14.88 94.639545
0.651864 -42.02 94.802413
0.652142 70.91 94.977866
0.652421 -184.42 94.133726
0.6527 54.53 94.493007
0.652978 -37.5 94.998681
0.653257 -5.66 94.661357
0.653535 76.43 94.39756
0.653814 62.38 94.925161
0.654092 104.67 94.335542
0.654371 -25.19 94.573136
0.65465 -98.61 94.348455
0.654928 -15.18 95.06975
0.655207 -37.79 94.600247
0.655485 -31.46 94.871485
0.655764 195.63 94.853262
0.656042 210.24 94.612047
0.656321 -11.92 94.672906
0.6566 -40.69 94.670719
0.656878 34.75 94.856226
0.657157 41.93 94.727452
0.657435 2.34 94.454825
0.657714 57.67 94.625431
0.657992 -53.35 94.762128
0.658271 -118.49 94.717804
0.65855 46.48 95.032
0.658828 -7.7 94.713046
0.659107 -103.88 95.210918
0.659385 97.42 95.229316
0.659664 62.33 95.004533
0.659942 216.06 94.437794
0.660221 202.96 95.224752
0.6605 -73.34 94.982001
0.660778 -60.68 95.187565
0.661057 155.35 94.950804
0.661335 119.05 95.262184
0.661614 94.62 95.224401
0.661892 -1.85 95.068282
0.662171 -27.46 94.725058
0.66245 -189.6 94.603277
0.662728 122.22 95.131472
0.663007 284.02 94.464219
0.663285 -36.34 94.733688
0.663564 51.92 94.535759
0.663842 16.21 94.832156
0.664121 43.65 94.478709
0.6644 -60.52 94.776666
0.664678 -38.77 94.226245
0.664957 -17.29 94.551931
0.665235 144.93 94.281245
0.665514 -171.26 94.316333
0.665792 20.55 93.997549
0.666071 93.47 94.137119
0.66635 192.95 94.543537
0.666628 122.65 94.128258
0.666907 43.87 94.335081
0.667185 162.88 93.987201
0.667464 -12.81 94.250419
0.667742 25.78 93.923641
0.668021 2.76 94.292498
0.6683 24.11 94.224515
0.668578 45.59 96.544519
0.668857 17.18 97.333516
0.669135 87.69 98.531174
0.669414 106.4 99.647618
0.669692 -56.94 101.06014
0.669971 66.85 100.96845
0.67025 5.06 101.83344
0.670528 11.57 101.47844
0.670807 36.9 103.1889
0.671085 21.4 103.48085
0.671364 26.51 104.2272
0.671642 101.25 105.09652
0.671921 87.02 105.12173
0.672199 43.69 106.73701
0.672478 86.52 105.73407
0.672757 85.16 106.71515
0.673035 -118.12 107.5063
0.673314 -54.75 108.23561
0.673592 44.53 108.24021
0.673871 34.87 110.00794
0.674149 77.43 109.14014
0.674428 4.63 110.69982
0.674707 -85.17 110.81984
0.674985 209.56 111.10353
0.675264 33.23 111.3188
0.675542 104.73 112.44429
0.675821 120.04 112.35116
0.676099 73.52 113.20857
0.676378 204.48 112.86484
0.676657 48.58 114.84508
0.676935 -171.15 114.30398
0.677214 -92.97 114.50009
0.677492 247.72 115.91108
0.677771 -51.46 115.19241
0.678049 -32.82 117.92688
0.678328 314.31 116.81568
0.678607 107.1 117.1974
0.678885 1.85 118.54426
0.679164 -101.38 118.41469
0.679442 264.78 118.54757
0.679721 -35.91 121.27789
0.679999 19.85 119.67771
0.680278 310.95 120.66352
0.680557 210.01 121.32603
0.680835 -129.95 121.69469
0.681114 90.25 122.25326
0.681392 37.4 122.21444
0.681671 151.84 122.91709
0.681949 88.64 123.47743
0.682228 -77.83 123.24966
0.682507 -145.55 123.76048
0.682785 -64.87 124.39987
0.683064 138.87 124.48364
0.683342 -71.85 124.99429
0.683621 137.25 125.6496
0.683899 -105.15 125.61066
0.684178 -83.23 125.4981
0.684457 -152.52 126.08639
0.684735 224.13 126.97866
0.685014 258.5 126.97306
0.685292 -79.25 127.64894
0.685571 -140.11 127.81421
0.685849 -8.08 128.77542
0.686128 -135.93 129.52669
0.686407 152.26 129.76711
0.686685 -41.9 130.58726
0.686964 167.44 131.64285
0.687242 -6.24 130.39749
0.687521 -112.51 132.10932
0.687799 93.67 132.46963
0.688078 -15.98 133.22605
0.688357 131.86 133.3393
0.688635 -10.47 133.36789
0.688914 44.78 134.49048
0.689192 -2.48 135.90059
0.689471 156.07 134.73912
0.689749 126.82 136.7858
0.690028 -88.18 137.11521
0.690307 308.65 139.02243
0.690585 19.93 138.97539
0.690864 81.21 139.57644
0.691142 0.95 141.14555
0.691421 -54.55 140.04763
0.691699 -249.84 140.56911
0.691978 89.97 142.64621
0.692257 50.42 142.09253
0.692535 107.67 142.77703
0.692814 85.69 143.58362
0.693092 146.34 142.62131
0.693371 170.06 144.74384
0.693649 -166.32 144.81654
0.693928 -205.04 146.69811
0.694207 82.12 145.70968
0.694485 268.42 146.6482
0.694764 196.59 147.66743
0.695042 173.06 148.40307
0.695321 -47.1 148.35804
0.695599 -25.95 149.81126
0.695878 -29.88 149.84247
0.696157 -87.59 151.39865
0.696435 125.26 150.37533
0.696714 -21.54 151.26087
0.696992 327.2 154.4699
0.697271 185.86 154.36121
0.697549 -102.43 154.68991
0.697828 -6.64 154.97182
0.698107 41.99 155.82776
0.698385 -43.42 157.38751
0.698664 83.65 157.26366
0.698942 136.65 158.33016
0.699221 202.02 160.13271
0.699499 487.29 160.35327
0.699778 200.93 162.68976
0.700057 64.76 162.2063
0.700335 -163.1 163.67334
0.700614 -67.46 166.58915
0.700892 146.35 165.72483
0.701171 2.19 166.34497
0.701449 262.31 167.31558
0.701728 -107.44 168.54718
0.702007 78.95 172.32434
0.702285 -94.67 171.37463
0.702564 -113.11 172.72511
0.702842 212.01 174.62519
0.703121 -110.56 176.12323
0.703399 263.22 178.31902
0.703678 22.06 177.38211
0.703957 44.73 179.23215
0.704235 150.69 181.78912
0.704514 -264.3 182.93589
0.704792 -6.35 182.68877
0.705071 213.09 184.23679
0.705349 92.13 185.76544
0.705628 231.83 190.67072
0.705907 227.43 187.77881
0.706185 -242.58 191.96283
0.706464 477.65 191.61163
0.706742 -387.53 192.9046
0.707021 13.33 192.32892
0.707299 399.44 192.53162
0.707578 229.43 194.90445
0.707856 -116.58 198.37197
0.708135 65.4 197.28071
0.708414 394.34 196.70895
0.708692 148.57 198.74009
0.708971 406.67 199.65426
0.709249 189.87 202.45213
0.709528 16.88 198.73325
0.709806 135.97 204.88361
0.710085 339.33 207.50292
0.710364 -401.9 209.45458
0.710642 538.28 209.34813
0.710921 139.58 213.59567
0.711199 270.09 217.09034
0.711478 47 219.29541
0.711756 -85.51 219.13409
0.712035 -263.58 222.96571
0.712314 -30.07 227.81615
0.712592 -0.44 231.36201
0.712871 322.78 236.99087
0.713149 -167.03 230.93039
0.713428 -5.23 238.78565
0.713706 -27.17 244.51521
0.713985 -373.44 246.41734
0.714264 37.66 244.73194
0.714542 -19.79 247.84548
0.714821 72.41 251.12088
0.715099 277.64 255.3929
0.715378 140.4 250.50206
0.715656 33.95 256.43552
0.715935 20.5 261.6185
0.716214 89.67 263.8738
0.716492 -365.59 262.37056
0.716771 -466.35 262.69049
0.717049 187.8 268.93566
0.717328 104.63 274.03817
0.717606 -17.97 269.12124
0.717885 81.52 270.99635
0.718164 -350.98 275.35273
0.718442 62.81 284.24688
0.718721 376.79 287.86121
0.718999 292.31 277.19764
0.719278 -86.38 285.32537
0.719556 188.05 290.09163
0.719835 -261.12 293.06464
0.720114 224.45 293.31627
0.720392 236.59 297.78976
0.720671 68.8 302.84285
0.720949 -203.04 316.4005
0.721228 371.83 303.12926
0.721506 30.34 305.17744
0.721785 427.76 316.0488
0.722064 -481.96 320.8254
0.722342 -290.56 318.50541
0.722621 250.76 319.33752
0.722899 -281.37 330.97543
0.723178 294.31 332.69313
0.723456 830.07 334.66076
0.723735 170.21 330.60105
0.724014 298.31 347.25055
0.724292 -87.1 343.90867
0.724571 794.72 359.45248
0.724849 -433.27 354.00176
0.725128 588.31 363.24704
0.725406 -435.91 374.37035
0.725685 251.98 373.53767
0.725964 -444.37 380.27858
0.726242 20.14 387.85504
0.726521 -35 400.38922
0.726799 -863.29 403.24297
0.727078 -83.22 412.34866
0.727356 212.71 425.66641
0.727635 549.76 438.07264
0.727914 -345.26 439.53579
0.728192 536.57 460.24288
0.728471 -696.56 466.10785
0.728749 331.37 472.45598
0.729028 1180.53 493.53199
0.729306 279.48 511.80743
0.729585 -26.38 527.81319
0.729864 -818.45 538.08926
0.730142 -360.97 564.76328
0.730421 830.18 571.02688
0.730699 292.89 612.88427
0.730978 546.42 640.2127
0.731256 -453.26 661.2534
0.731535 -761.63 691.20169
0.731814 159.49 754.48807
0.732092 560.96 764.87444
0.732371 555.58 837.48685
0.732649 -1654.09 910.17232
0.732928 791.26 1084.0021
0.733206 -92.57 1266.8292

